FP1,FP2,F7,F8,AF1,AF2,FZ,F4,F3,FC6,FC5,FC2,FC1,T8,T7,CZ,C3,C4,CP5,CP6,CP1,CP2,P3,P4,PZ,P8,P7,PO2,PO1,O2,O1,X,AF7,AF8,F5,F6,FT7,FT8,FPZ,FC4,FC3,C6,C5,F2,F1,TP8,TP7,AFZ,CP3,CP4,P5,P6,C1,C2,PO7,PO8,FCZ,POZ,OZ,P2,P1,CPZ,nd,Y,Class
-3.55,-4.476,-1.017,-0.661,-6.083,-7.64,-4.313,-1.2,-7.507,-2.319,-6.775,-1.648,-4.405,-8.921,-7.741,-4.1,24.017,-2.319,-11.922,-5.381,1.719,1.007,1.78,-0.488,2.391,-2.207,-1.475,-0.997,1.007,-2.574,-2.716,-2.441,-0.682,6.46,-8.453,-3.042,2.848,-1.139,-3.937,-2.096,-5.493,-0.224,-0.793,-0.254,-5.809,1.76,-1.862,-4.71,1.343,0.6,0.387,-0.783,7.762,-0.773,-6.337,-7.09,-3.011,-0.6,-2.625,0.824,2.604,1.79,-3.56,-5.341,a
-5.015,-3.499,-3.947,5.198,-4.618,-9.593,-2.848,1.241,-5.066,-0.366,-4.822,-0.183,-3.916,-7.456,-6.276,-4.588,-21.881,0.61,-16.805,4.873,0.743,1.495,1.292,1.465,1.414,-0.743,1.455,0.468,1.495,-2.085,-3.204,-4.395,0.295,2.065,-6.012,-4.018,-4.964,0.814,-4.913,-0.631,-3.052,1.241,-0.305,1.699,-4.344,1.272,-3.326,-3.733,-0.122,2.065,-0.102,0.682,-7.375,-0.285,-3.408,1.211,-2.523,-0.112,-2.625,1.312,2.116,1.302,-4.537,-5.341,a
-5.503,-1.058,-5.9,10.569,-2.177,-7.151,-0.407,2.706,-0.671,1.587,-0.916,0.793,-1.475,-4.527,-2.37,-6.053,-3.815,2.075,-10.457,10.244,-0.722,1.984,-0.661,2.441,-0.051,1.211,0.966,0.468,0.519,-1.597,-3.693,-4.883,-1.17,-5.259,-1.129,-3.042,-6.917,0.326,-2.96,2.299,-0.61,1.729,-3.235,2.675,-1.414,-0.682,-2.838,-1.292,-2.563,2.065,-2.055,1.658,-2.981,1.18,-18.056,4.14,-1.058,-0.6,-2.625,0.824,0.651,0.326,-5.025,-4.364,a
-3.55,1.383,-4.924,13.987,1.241,0.173,1.058,3.682,1.77,3.052,0.061,1.77,-0.01,-2.574,1.048,-7.517,-5.28,-1.343,11.515,0.478,-2.187,1.495,-3.591,2.93,-1.027,3.164,-3.428,-0.02,-1.434,-1.597,-4.669,-2.441,-3.611,-8.189,3.754,-0.6,-5.452,-1.628,1.923,4.252,-0.122,1.729,-9.094,2.187,0.539,-2.635,-1.862,1.638,-4.517,2.553,-4.985,2.635,2.391,1.668,6.846,12.441,0.407,-1.577,-3.113,0.336,-2.279,-0.651,-3.56,-3.876,a
-0.621,3.337,-2.97,13.499,2.706,8.962,1.546,3.682,1.282,3.54,-2.869,1.282,-0.01,-3.062,0.071,-8.982,0.58,-1.343,3.215,0.478,-2.187,0.519,-5.544,2.93,-1.516,5.117,-9.776,-0.997,-3.387,-1.597,-5.646,0.488,-5.564,-4.283,5.219,3.306,-6.917,-2.116,5.829,3.764,-2.075,2.706,-14.954,1.211,1.516,-3.611,-0.885,4.079,-4.028,2.553,-7.426,3.611,2.391,1.18,4.893,-1.231,0.407,-2.553,-3.113,-0.153,-3.743,-1.139,-0.631,-3.876,a
1.821,2.848,-1.994,9.593,2.706,14.333,0.57,3.194,-2.136,4.517,-7.751,1.282,-0.987,-4.527,-4.812,-9.959,1.068,-1.343,0.773,-2.452,-1.211,0.519,-6.032,2.441,-1.516,6.093,-12.705,-1.485,-4.364,-1.597,-6.622,2.93,-6.541,3.53,2.289,5.747,-11.8,-0.163,5.341,1.811,-4.517,3.682,-16.418,0.234,0.051,-2.146,-2.35,5.056,-1.587,3.53,-8.891,4.1,-0.539,-2.726,-0.966,3.164,-0.081,-3.042,-3.601,-0.641,-3.743,-1.139,1.811,-4.364,a
2.309,2.36,-1.994,4.222,1.729,13.357,0.081,2.218,-4.578,5.005,-11.658,0.305,-2.94,-3.062,-10.671,-10.447,5.463,-0.854,5.656,-0.498,0.254,0.519,-4.079,2.441,-1.027,6.582,-10.264,-0.997,-3.876,-1.109,-6.134,1.953,-5.076,9.389,-2.594,5.259,-10.824,3.255,1.923,-0.631,-5.493,4.171,-10.559,0.234,-1.414,1.272,-4.303,4.567,0.366,4.018,-7.914,4.588,2.879,-0.773,-3.408,-0.254,-1.058,-2.553,-3.113,-0.153,-2.279,-0.651,2.299,-5.829,a
0.844,2.848,-2.97,1.292,1.241,7.009,0.57,1.241,-3.601,4.517,-10.681,0.305,-2.452,3.286,-12.136,-9.471,6.439,-2.808,10.05,-0.987,0.743,0.519,-2.126,2.441,-0.539,7.07,-3.916,0.468,-2.411,-0.621,-4.669,-0.488,-0.682,10.854,-5.524,2.818,1.383,6.185,-1.495,-0.631,-3.54,3.682,0.183,1.211,-0.926,5.178,-4.791,4.079,0.854,3.53,-4.496,5.076,3.855,-0.773,-27.822,-11.485,-0.57,-1.577,-2.136,-0.153,-0.326,-0.163,1.322,-5.829,a
0.844,4.801,-1.017,1.78,2.218,0.173,1.546,0.753,0.793,4.028,-4.822,0.305,-0.01,12.075,-6.765,-5.564,-6.256,3.052,-4.11,2.92,0.743,0.519,-0.173,2.441,-0.539,6.093,2.431,0.956,-0.946,-0.132,-2.228,-1.953,6.154,9.878,-4.059,-0.112,17.008,7.161,-1.007,0.346,0.854,2.218,10.437,2.187,1.027,8.108,-3.326,3.103,-0.61,2.065,-1.078,4.1,-2.492,1.668,-29.287,-8.067,-0.081,-1.088,-1.16,0.336,0.651,0.326,0.834,-2.899,a
3.286,7.731,4.354,5.198,4.659,-1.78,2.523,0.264,6.165,2.563,3.967,-0.183,2.92,18.422,1.536,0.295,-0.397,2.075,-8.016,-2.452,0.254,-0.458,0.804,1.465,-0.539,4.14,5.361,-0.02,-0.946,-0.132,-0.763,0.977,12.99,10.366,2.289,-1.088,23.356,5.208,3.387,0.834,5.249,1.241,15.32,2.187,3.957,8.108,0.092,3.591,-2.075,0.6,1.851,2.146,0.437,0.692,-13.173,-13.926,0.895,-0.6,-0.671,-0.153,0.163,-0.163,3.276,3.448,a
7.68,8.708,9.725,7.64,6.612,0.661,3.011,0.264,8.606,1.587,9.827,-0.183,3.896,16.469,7.395,7.619,0.092,-2.808,-22.176,-9.288,0.254,-0.946,0.315,0,-1.027,-0.254,4.873,-1.485,-1.923,-1.597,-0.763,6.836,16.408,12.319,9.125,-0.112,14.567,1.79,7.294,-0.142,7.202,0.264,12.39,1.699,5.422,5.178,2.045,4.079,-1.099,-1.353,3.316,-1.272,2.391,-0.773,-9.755,-10.997,0.895,-1.577,-2.136,-1.129,-0.814,-0.163,6.694,10.284,a
10.122,7.731,13.631,7.151,7.1,4.567,2.523,0.753,7.141,1.099,11.78,-0.183,3.408,6.704,7.395,11.525,-1.373,-0.854,-4.598,-3.916,0.743,-1.434,-0.173,-1.465,-1.027,-5.137,2.431,-3.927,-2.899,-4.527,-4.181,11.719,13.479,12.319,12.054,2.818,-1.058,-0.163,7.294,-0.142,5.737,0.264,5.066,0.722,4.934,0.783,2.533,4.567,1.343,-1.353,3.805,-3.713,1.414,0.203,-10.732,-8.067,0.407,-3.042,-4.578,-2.106,-1.302,-0.163,9.623,14.679,a
9.145,3.825,12.655,4.222,5.636,6.032,1.546,1.729,4.211,1.587,8.362,-0.183,1.943,-4.038,1.536,10.061,0.58,0.122,0.285,-7.334,1.719,-1.434,0.315,-2.93,-1.027,-8.067,-0.498,-4.903,-4.364,-7.456,-7.599,12.207,6.643,6.46,11.078,5.259,-7.406,1.302,4.364,0.346,2.808,0.264,-2.258,0.722,3.469,-3.123,0.092,4.079,4.761,-1.353,2.828,-5.178,1.414,-0.773,-4.873,-6.114,-0.57,-4.506,-7.019,-2.594,-1.302,-0.163,9.135,13.702,a
5.239,-0.57,6.795,1.292,3.682,3.591,1.058,2.706,2.258,2.563,3.479,0.305,0.478,-9.41,-4.323,3.713,3.51,-4.272,2.238,-8.799,1.231,-1.434,-0.173,-4.395,-2.004,-10.02,-5.381,-5.88,-5.341,-9.41,-10.04,7.812,-0.193,-3.794,7.172,6.724,-1.546,4.72,1.434,2.787,-0.61,1.241,-6.165,2.187,2.004,-4.588,-3.326,3.103,4.272,-1.353,0.875,-5.666,2.879,-2.238,-0.966,-5.137,-0.57,-5.971,-8.972,-3.571,-1.302,-0.163,5.229,8.331,a
0.844,-3.011,1.424,-0.173,2.706,-0.315,2.523,4.171,3.235,2.563,-0.427,1.282,0.478,-7.456,-6.276,-3.611,3.021,-4.761,2.726,-3.916,-0.234,-1.434,-2.614,-4.883,-3.469,-10.02,-10.752,-6.856,-7.294,-10.874,-11.505,1.465,-1.658,-11.119,4.242,6.724,8.219,5.208,1.434,3.276,-1.099,1.241,-5.676,4.14,2.492,-4.588,-6.744,2.614,0.366,-1.841,-3.031,-6.643,1.414,-3.215,-29.775,-16.856,0.895,-6.948,-9.46,-4.059,-2.767,-0.651,1.322,1.984,a
-0.621,-2.035,-1.994,-0.661,4.171,-1.78,4.476,4.659,5.676,1.587,-1.404,2.747,1.943,-2.574,-3.835,-7.029,1.556,-3.784,-2.645,-7.823,-2.187,-2.899,-6.032,-6.348,-4.934,-10.997,-15.635,-8.321,-8.759,-10.874,-11.505,-1.465,2.248,-11.607,4.73,4.771,8.708,0.814,3.876,2.299,0.366,-0.224,-3.235,5.605,4.445,-5.076,-8.209,3.591,-4.517,-3.306,-8.403,-8.108,1.414,-2.238,3.916,-3.672,2.36,-8.413,-10.437,-5.035,-5.208,-2.116,-0.142,-1.434,a
2.309,1.383,0.448,-1.638,6.612,1.149,6.429,5.147,8.118,-0.366,0.061,2.747,3.896,-0.132,0.559,-6.053,1.556,-1.831,-2.157,-0.987,-3.652,-3.876,-8.474,-7.324,-6.399,-11.973,-16.612,-9.298,-9.735,-10.874,-11.993,0,7.131,-5.747,6.683,2.33,-0.57,-5.046,7.294,-0.142,2.808,-2.665,-0.305,6.093,6.887,-6.541,-7.721,5.544,-6.958,-5.259,-12.309,-11.037,2.879,1.668,0.987,-23.692,3.825,-9.389,-10.925,-6.5,-7.161,-2.604,2.299,0.031,a
6.215,5.29,5.819,-2.614,8.565,5.544,6.917,4.171,8.606,-2.319,2.502,2.258,4.873,-3.55,3.489,-2.146,0.092,-0.366,-9.969,-7.823,-3.164,-4.364,-8.962,-8.301,-5.91,-11.973,-11.729,-8.809,-9.735,-10.386,-11.505,3.906,9.084,0.6,7.66,-0.112,-10.824,-8.464,8.27,-2.096,4.761,-5.595,2.625,5.117,7.863,-9.471,-5.28,7.497,-5.981,-5.747,-12.309,-12.014,1.414,1.18,-2.92,-4.161,3.825,-8.901,-10.925,-6.989,-6.673,-2.604,5.717,3.937,a
7.192,5.778,9.237,-2.126,8.077,8.474,5.452,2.706,7.629,-3.296,3.967,0.793,4.873,-9.898,2.513,0.295,3.998,-4.272,-14.364,-8.311,-1.211,-3.876,-6.032,-7.812,-3.957,-10.508,-3.428,-7.833,-7.294,-9.898,-11.017,6.348,7.131,2.553,6.683,-1.577,-12.777,-6.999,5.341,-2.584,5.249,-7.06,4.089,3.164,6.399,-11.424,-0.885,7.497,-1.587,-5.747,-8.403,-10.549,0.926,-4.679,-30.263,-5.625,2.36,-7.924,-10.437,-6.989,-4.72,-2.116,7.182,5.89,a
4.262,3.825,7.772,1.292,5.147,7.497,3.011,1.729,5.676,-2.808,4.944,-0.671,3.408,-14.781,-0.905,-1.17,-2.838,0.61,3.215,-0.01,1.231,-3.387,-2.126,-6.836,-2.004,-7.579,2.431,-6.368,-4.852,-8.921,-9.552,3.418,3.225,-0.865,2.777,-1.577,-6.429,-3.092,0.458,-2.096,4.272,-6.083,4.089,1.211,3.469,-10.935,2.533,5.056,2.319,-4.283,-2.543,-8.108,-1.516,-0.773,-2.431,-0.254,0.407,-6.948,-8.484,-6.012,-1.79,-0.651,4.252,4.425,a
-1.109,-0.57,1.912,6.175,0.753,3.591,0.57,0.264,4.211,-1.831,3.479,-1.16,1.943,-14.781,-4.323,-4.588,-2.35,1.587,-7.039,-1.963,2.207,-2.411,0.315,-5.371,-2.004,-5.625,1.455,-5.88,-3.387,-7.945,-8.575,-2.441,0.295,-4.283,-2.106,-1.577,1.383,-0.651,-5.89,-1.607,2.808,-3.642,0.671,-0.743,1.027,-8.494,4.486,1.638,3.296,-3.306,0.387,-4.201,1.414,2.157,-14.15,-12.95,-0.57,-5.483,-7.019,-4.547,-0.326,0.326,-1.119,0.031,a
-5.503,-4.476,-5.412,9.104,-2.665,-0.804,-0.895,-0.224,2.747,-0.366,1.526,-1.16,0.478,-10.874,-6.276,-7.029,-1.862,-2.808,-1.668,-3.916,1.231,-1.923,-0.661,-3.906,-2.981,-5.625,-4.405,-6.856,-4.364,-7.456,-7.599,-6.836,-0.682,-4.283,-5.524,-1.577,3.825,-1.139,-8.82,-1.119,0.854,-1.2,-4.7,-0.743,-0.437,-5.564,2.533,-0.804,0.854,-2.33,-1.078,-3.225,0.926,-0.285,-18.545,-1.719,-1.058,-5.971,-7.019,-4.547,-1.302,-0.163,-6.002,-3.876,a
-6.48,-5.452,-7.853,8.616,-2.665,-2.268,-0.407,-0.224,1.282,0.122,-1.404,-0.183,-0.01,-5.992,-6.276,-5.564,2.533,-5.737,-0.203,-5.381,-0.722,-1.434,-3.591,-3.906,-4.445,-6.114,-10.752,-7.833,-6.317,-7.945,-8.087,-6.836,-0.193,0.112,-6.012,-1.577,-0.081,-2.604,-7.355,-0.142,-0.61,-0.224,-9.583,0.234,-0.437,-4.1,-1.862,-1.78,-2.563,-2.33,-5.473,-3.713,1.902,-2.726,-1.455,-5.137,-0.081,-6.948,-7.507,-4.547,-3.743,-0.651,-6.978,-5.341,a
-4.038,-3.988,-4.435,1.78,0.264,-0.804,0.57,-0.712,-0.183,0.61,-3.845,0.793,-0.01,-4.038,-5.3,-1.17,1.068,-4.272,0.773,-4.893,-1.699,-1.434,-7.009,-3.906,-4.445,-5.137,-12.217,-7.345,-8.759,-7.945,-9.552,-3.906,-0.193,4.506,-3.571,-0.112,-3.988,-4.069,-2.96,-0.142,-2.075,-1.2,-11.536,1.211,0.539,-4.588,-7.721,-0.315,-5.005,-1.841,-9.867,-4.69,3.367,-1.75,-0.966,-7.579,0.895,-7.924,-8.484,-4.547,-5.697,-1.139,-4.049,-3.387,a
-0.132,-2.035,3.377,-7.985,2.706,1.149,2.035,-0.224,-2.136,0.122,-5.798,0.793,-0.01,-5.015,-4.323,2.736,3.998,-4.272,0.773,-5.87,-2.187,-1.434,-7.497,-3.418,-2.981,-3.184,-9.288,-5.88,-8.759,-7.456,-10.04,0,-0.682,3.042,0.824,2.33,-2.523,-4.069,1.434,-0.631,-2.563,-2.665,-8.606,2.187,0.539,-5.564,-11.139,1.638,-5.005,-1.353,-10.356,-4.69,3.855,-1.75,-0.478,-17.832,0.895,-7.924,-8.972,-4.547,-5.697,-1.139,-0.142,-0.458,a
1.821,-2.035,9.237,-17.751,3.682,2.614,2.035,-0.712,-2.625,-1.343,-5.798,0.305,-0.498,-7.456,-4.323,3.225,-0.397,-2.808,-1.18,-12.705,-0.722,-0.946,-5.544,-2.441,-1.516,-0.743,-5.87,-3.927,-7.294,-6.968,-10.04,1.465,-1.17,-3.306,4.242,4.771,4.313,-3.581,1.923,-2.096,-3.052,-3.642,-1.282,1.699,0.539,-7.029,-11.139,2.614,-3.052,-0.865,-6.938,-3.225,1.414,-1.75,-12.197,-9.043,0.407,-6.46,-8.484,-3.082,-3.743,-0.163,2.299,1.984,a
1.821,-3.499,9.237,-22.634,3.194,1.149,1.546,-0.712,-1.16,-2.319,-4.333,-0.671,-0.01,-8.433,-4.323,1.272,23.041,-8.667,1.261,-16.612,0.254,-1.434,-2.126,-1.953,-1.027,-1.231,-4.405,-4.415,-5.341,-7.456,-9.552,0,-0.682,-10.63,6.195,4.283,9.684,-3.092,-1.007,-4.049,-1.587,-3.642,5.554,0.722,0.539,-7.517,-7.721,2.126,-1.587,-1.353,-2.055,-2.248,7.273,-5.168,-15.127,-17.344,-0.081,-4.995,-7.507,-2.106,-1.79,0.326,1.811,3.937,a
0.356,-5.941,5.33,-20.192,1.241,-0.315,1.058,-1.2,1.77,-4.272,-1.892,-1.16,0.966,-6.968,-2.858,-0.682,-22.858,-0.854,-1.18,-5.87,1.231,-1.923,-0.661,-2.93,-2.004,-4.649,-4.893,-6.368,-4.364,-8.433,-8.087,-2.441,1.76,-12.583,6.195,0.376,7.243,-2.604,-3.448,-5.025,0.854,-4.618,8.484,-0.254,1.027,-7.029,-3.326,1.149,-0.122,-2.818,-0.59,-2.736,-2.981,1.668,-4.873,-10.508,-0.081,-4.995,-7.996,-3.082,-1.302,0.326,0.346,4.913,a
-0.132,-6.429,-0.041,-8.962,0.753,-1.292,1.546,-2.177,4.211,-5.249,0.061,-1.648,2.431,-4.038,-0.417,-1.17,-9.186,1.587,-11.922,-11.729,0.743,-3.387,-1.149,-5.371,-4.445,-9.043,-5.381,-8.809,-5.341,-10.386,-8.087,-2.93,5.178,-6.724,5.707,-5.971,-1.546,-2.604,-1.984,-4.537,3.296,-5.595,6.042,0.234,2.492,-7.517,-0.397,0.661,-0.122,-5.259,-1.567,-5.666,-2.492,1.18,-14.15,-18.809,0.895,-6.948,-9.46,-5.035,-2.279,-1.139,-0.142,5.402,a
1.821,-3.011,-1.994,6.175,2.706,0.173,3.011,-1.689,6.165,-5.249,1.038,-0.671,3.896,-2.574,2.513,0.295,-3.326,-3.296,-5.575,-17.588,-0.234,-4.852,-3.103,-8.789,-6.399,-13.438,-3.916,-11.251,-7.782,-12.339,-9.552,-0.977,8.596,3.042,5.707,-10.366,-8.382,-3.581,3.387,-3.072,4.761,-7.548,0.183,2.187,3.957,-8.982,0.58,2.614,-0.122,-7.212,-4.496,-10.061,-0.051,-1.75,-31.24,-23.692,2.36,-9.389,-10.925,-7.965,-4.72,-2.604,1.811,5.402,a
4.262,3.825,-0.529,18.87,6.612,3.591,5.941,0.264,5.676,-3.784,0.549,0.793,4.873,-4.038,3.977,1.76,-2.35,-3.784,-3.621,-6.358,-1.699,-5.829,-5.544,-11.719,-7.375,-15.391,-2.452,-12.716,-10.712,-13.804,-11.993,1.953,10.549,9.878,6.195,-9.389,-6.429,-6.51,9.247,-1.119,4.272,-8.036,-4.7,5.117,5.91,-11.424,-0.397,6.521,-0.122,-8.189,-6.449,-13.967,0.926,-0.285,-43.447,-20.762,3.825,-11.831,-12.878,-9.918,-6.673,-3.581,4.252,3.937,a
6.704,10.661,1.912,23.265,9.542,7.009,7.894,3.194,5.188,-1.343,0.061,2.258,4.873,-7.456,2.513,1.272,-1.373,-5.737,-10.457,-14.659,-3.164,-6.317,-7.497,-13.672,-8.352,-16.856,-3.428,-14.669,-12.665,-15.269,-14.923,3.418,10.061,9.389,6.683,-3.042,2.36,-8.952,12.177,1.322,2.808,-7.06,-5.676,7.558,7.375,-12.889,-2.35,9.939,-1.099,-8.189,-7.426,-16.897,-0.539,-3.215,-22.939,-14.414,4.801,-14.272,-14.832,-11.871,-8.626,-4.557,6.694,1.495,a
7.192,14.079,2.889,16.917,11.007,9.45,9.359,7.1,4.7,1.099,0.061,4.211,3.896,-9.41,-1.394,-0.193,0.092,-2.808,-0.692,-4.893,-4.14,-6.317,-7.985,-14.648,-9.328,-17.832,-8.311,-16.622,-14.618,-17.222,-18.829,3.418,7.131,3.53,5.219,4.283,7.243,-9.928,10.223,2.299,0.854,-5.107,-2.258,9.023,7.863,-13.377,-4.303,11.403,-3.54,-8.189,-7.426,-18.361,0.437,-1.261,-4.384,-11.973,5.29,-15.737,-17.273,-12.848,-9.603,-4.557,7.182,-0.946,a
5.727,12.614,2.401,4.71,10.03,9.939,9.359,8.565,4.7,2.563,1.526,4.7,2.92,-8.433,-4.323,-1.17,-1.862,-5.249,-1.668,-14.17,-5.117,-5.829,-9.45,-15.137,-10.305,-18.809,-14.17,-19.063,-16.571,-19.175,-22.247,1.953,4.201,-1.841,1.801,8.677,4.313,-6.999,5.341,2.787,-0.122,-4.13,1.648,9.023,7.375,-12.889,-5.28,11.403,-5.981,-8.189,-8.891,-19.826,2.391,0.203,3.428,-7.579,5.29,-17.69,-20.203,-13.336,-11.068,-4.557,5.229,-1.923,a
4.262,8.219,2.889,-4.079,8.077,7.985,8.382,8.077,5.188,2.075,2.991,4.7,2.92,-4.527,-5.3,0.295,6.927,-5.737,-4.11,-10.752,-5.605,-4.852,-10.427,-14.648,-10.305,-19.297,-18.077,-19.552,-17.548,-21.128,-24.2,0.488,2.248,-0.865,-1.617,8.189,-2.035,-1.139,1.434,1.811,0.366,-3.642,3.113,8.046,6.399,-11.424,-5.28,9.45,-7.935,-8.189,-10.356,-19.338,3.367,-2.238,-4.384,-17.344,4.313,-18.667,-22.156,-13.336,-11.556,-4.069,3.764,-1.923,a
3.774,3.337,4.354,-4.079,6.612,5.544,6.917,5.636,5.676,1.587,3.967,3.723,2.92,-1.109,-4.323,2.248,5.951,-6.226,-14.852,-12.217,-5.117,-4.364,-10.915,-13.672,-9.328,-17.832,-18.077,-18.087,-18.036,-21.128,-23.712,0.977,2.248,4.018,-3.571,3.794,-3.499,4.232,0.458,0.346,1.343,-4.13,1.648,6.582,5.91,-9.471,-3.815,7.497,-7.446,-7.701,-10.844,-17.873,1.414,-4.679,-16.591,-14.903,3.825,-18.667,-22.156,-12.848,-12.044,-3.581,3.276,0.031,a
4.751,0.895,5.819,2.268,6.124,3.591,5.941,2.706,5.676,0.61,2.991,2.258,3.408,-2.085,-2.858,3.713,-5.28,-1.343,-2.645,-1.475,-3.652,-4.364,-9.939,-12.695,-7.863,-15.391,-13.682,-15.157,-16.571,-18.687,-19.806,2.441,3.713,8.413,-2.106,-0.112,3.337,5.208,2.411,-0.631,1.831,-4.13,-1.282,5.117,5.422,-8.494,-1.862,6.032,-5.005,-7.212,-9.867,-14.943,-1.516,-0.773,-6.826,-15.391,2.848,-16.713,-18.738,-11.383,-10.091,-3.092,4.252,2.96,a
6.704,1.383,5.33,8.128,6.124,2.614,4.964,1.241,5.188,0.122,0.549,1.282,3.408,-6.968,-1.882,4.69,-6.256,2.563,-11.922,-2.94,-2.187,-4.364,-7.985,-11.719,-6.399,-12.95,-8.799,-12.227,-14.13,-14.292,-13.947,4.395,5.178,8.413,1.312,-0.6,11.637,1.302,6.317,-0.631,2.319,-3.153,-2.747,4.14,4.934,-8.494,-0.885,6.032,-2.075,-6.724,-7.426,-12.502,-1.516,2.645,-4.873,-1.231,1.872,-13.784,-13.367,-9.918,-8.138,-2.604,6.694,5.89,a
8.169,4.801,3.377,6.663,6.612,3.591,4.964,1.729,4.7,-0.854,-1.892,0.305,2.92,-11.851,-2.37,6.154,7.904,-2.319,14.933,-10.264,-1.211,-4.364,-6.032,-10.742,-6.399,-11.973,-5.381,-11.251,-11.2,-10.386,-8.087,6.348,5.178,5.483,4.73,2.33,13.102,-2.116,9.735,-0.142,2.319,-3.153,-2.747,4.14,4.934,-8.494,-1.862,6.521,-0.122,-6.724,-5.961,-11.525,3.367,-1.75,-20.498,-17.832,1.383,-10.854,-8.972,-8.942,-6.673,-2.116,8.158,9.308,a
8.169,7.731,1.912,-2.126,7.1,6.521,4.964,3.682,5.188,-0.854,-1.404,0.305,2.431,-11.363,-1.882,9.572,-5.28,1.099,-11.922,4.873,-1.211,-4.364,-6.032,-10.742,-6.887,-10.508,-4.405,-12.227,-10.223,-8.921,-6.134,7.812,5.178,4.506,6.195,5.747,6.755,-0.651,10.223,0.834,1.831,-3.642,-2.258,5.117,5.422,-8.006,-3.815,7.497,-0.122,-7.212,-6.938,-11.525,-2.492,0.203,-36.123,-30.528,1.872,-9.878,-7.019,-8.942,-6.673,-1.628,8.158,11.749,a
7.68,9.196,3.866,-10.915,8.077,10.427,5.941,6.124,5.676,-0.854,1.526,1.282,2.92,-5.992,-0.417,13.967,1.068,-0.854,-3.133,-7.823,-2.187,-4.364,-7.497,-10.742,-7.863,-9.043,-5.87,-13.692,-11.2,-9.41,-8.087,9.277,6.154,7.436,5.707,8.189,-0.081,5.208,9.247,1.811,2.319,-3.642,-2.258,6.582,6.399,-7.029,-4.791,8.962,-2.075,-7.212,-9.379,-11.037,1.902,-0.285,-22.939,0.722,2.848,-11.342,-8.484,-9.918,-8.138,-2.604,7.182,11.749,a
7.68,9.196,8.26,-11.403,9.542,13.357,7.406,7.589,6.165,0.61,5.432,3.235,3.408,0.356,3.001,17.385,-2.35,-0.366,-9.969,-2.94,-4.14,-4.364,-9.939,-10.254,-8.352,-6.602,-8.311,-14.669,-13.641,-12.339,-12.97,9.766,8.596,11.342,5.219,9.165,-1.546,11.068,8.759,3.276,2.808,-2.177,-1.77,8.046,7.375,-5.076,-3.326,10.427,-4.517,-6.236,-11.332,-10.061,-0.539,0.203,-9.267,-1.719,3.825,-13.295,-12.39,-10.406,-10.091,-3.092,6.694,10.773,a
8.657,8.708,12.655,-1.638,11.495,14.333,8.382,8.565,6.165,3.54,6.897,4.211,3.896,2.797,5.931,17.385,2.533,-3.296,-3.621,-10.264,-5.117,-3.876,-11.403,-9.766,-8.352,-4.161,-9.288,-14.181,-15.106,-13.804,-17.853,10.254,12.502,11.831,6.195,8.677,4.313,10.579,11.2,4.74,3.296,0.264,0.183,8.535,8.352,-3.123,-0.397,11.892,-5.981,-4.283,-11.82,-8.108,-0.539,-3.215,-5.361,-5.137,4.313,-15.249,-15.32,-10.406,-11.556,-3.581,8.158,9.308,a
11.098,9.196,13.143,13.011,12.472,12.868,9.359,9.542,5.188,5.981,5.92,4.7,3.896,0.844,7.395,15.432,3.021,4.028,3.703,-7.334,-5.117,-3.876,-10.915,-8.301,-7.863,-2.696,-9.288,-13.204,-15.594,-13.804,-19.318,10.254,15.432,7.924,9.125,8.189,9.196,4.72,15.106,5.717,3.296,2.706,2.625,9.511,8.352,-2.635,1.556,12.38,-5.981,-2.818,-9.867,-5.666,1.902,0.692,-26.845,-12.461,4.313,-14.76,-15.32,-9.43,-11.068,-3.581,11.088,7.843,a
13.54,11.149,9.237,24.729,12.96,10.915,8.87,9.054,5.188,7.935,2.502,4.7,3.408,-2.085,5.931,12.014,-1.862,-0.366,-3.621,-8.799,-4.14,-3.387,-8.962,-7.812,-6.887,-3.184,-8.311,-11.739,-14.618,-11.851,-17.365,10.742,16.408,3.53,11.566,8.189,7.243,-1.628,18.036,5.229,2.808,3.194,4.089,9.511,8.352,-2.635,2.045,12.868,-5.005,-2.818,-7.426,-4.69,-1.027,-0.285,-4.384,-9.043,4.313,-12.807,-12.39,-7.965,-9.603,-3.092,13.529,7.843,a
14.516,13.59,4.354,26.683,12.96,9.45,8.87,8.077,6.165,6.47,0.061,3.723,3.896,-1.597,3.977,10.061,1.068,-3.784,-4.598,-8.311,-3.164,-3.387,-7.009,-7.812,-6.887,-4.161,-8.799,-10.763,-13.153,-9.41,-12.97,11.23,14.455,3.53,11.566,7.212,-1.546,-3.581,16.083,3.276,2.808,1.729,2.625,8.535,8.352,-3.611,0.58,12.38,-4.028,-3.794,-6.449,-6.154,0.926,-0.285,-12.685,-5.625,3.825,-10.366,-9.46,-7.477,-8.138,-2.604,14.994,8.331,a
13.54,13.59,0.936,18.87,12.472,9.45,7.894,6.124,7.629,3.54,0.061,2.747,3.896,2.309,2.024,9.572,-1.862,-1.343,-1.18,-3.916,-2.675,-3.876,-7.009,-8.789,-6.887,-6.602,-10.264,-10.274,-11.688,-7.456,-9.552,11.23,11.037,6.46,8.636,4.771,-9.359,-2.604,9.735,1.811,3.296,-1.689,0.183,7.558,8.352,-4.1,-2.35,12.38,-3.052,-4.771,-7.426,-9.084,0.437,1.18,-3.896,-11.973,3.337,-9.389,-7.507,-8.453,-7.65,-2.604,13.529,7.843,a
11.098,11.149,0.936,7.64,11.983,9.939,7.406,4.659,9.583,0.61,2.991,2.258,4.384,6.215,1.536,9.572,-0.397,0.61,-2.645,-3.428,-2.675,-4.364,-8.474,-10.254,-7.375,-8.067,-11.241,-9.786,-11.688,-7.456,-8.087,10.254,7.619,6.948,4.73,2.818,-6.917,-1.628,2.899,1.322,4.272,-4.618,-0.793,6.093,8.84,-4.588,-2.838,11.403,-3.052,-6.236,-9.379,-12.014,0.437,0.692,-9.755,-4.161,2.848,-9.389,-7.507,-8.942,-8.626,-3.092,10.6,6.866,a
8.657,5.778,3.866,-1.638,11.495,9.939,6.917,4.659,9.583,-0.854,5.92,2.258,4.384,5.239,2.024,10.061,0.092,-1.831,-7.039,-4.893,-2.675,-4.364,-9.45,-11.23,-7.863,-9.043,-10.752,-9.786,-12.177,-8.433,-9.552,9.277,5.178,1.088,2.289,3.306,4.313,-2.116,0.946,3.276,4.761,-5.595,1.16,5.605,8.352,-4.588,-2.35,10.427,-3.052,-6.724,-10.844,-13.967,-2.492,-3.215,-41.982,-8.555,2.848,-10.366,-8.484,-9.918,-9.603,-3.581,8.158,4.913,a
7.68,1.383,6.307,-6.032,10.03,9.45,6.917,6.612,7.629,-0.854,6.409,3.235,4.384,-0.621,2.024,10.061,2.045,-4.761,-11.434,-8.311,-3.164,-4.364,-9.45,-10.742,-7.863,-9.043,-8.311,-9.786,-12.665,-9.41,-11.993,8.301,5.666,-7.701,2.289,6.724,15.055,-1.628,5.829,4.74,4.272,-4.13,5.066,6.582,7.863,-5.564,-1.862,8.962,-3.052,-6.724,-10.356,-12.99,-0.051,-2.238,-17.08,-9.043,2.848,-10.854,-9.949,-9.918,-10.091,-3.581,7.182,4.425,a
8.169,1.872,7.772,-6.032,8.565,8.474,6.429,10.03,5.188,1.587,3.967,4.211,3.896,-7.456,1.048,10.549,4.974,-3.296,-2.645,-3.916,-3.164,-3.876,-8.474,-9.766,-7.375,-8.067,-5.381,-9.786,-12.177,-10.386,-13.458,7.812,7.131,-10.142,3.265,11.607,16.52,1.79,13.153,5.229,3.296,-1.689,6.531,7.558,6.399,-5.564,-2.35,8.474,-3.052,-5.747,-7.914,-11.037,4.832,1.18,-29.287,-15.391,3.337,-10.366,-10.925,-8.453,-9.603,-3.581,7.67,6.378,a
9.145,7.731,7.284,-4.567,7.589,7.985,5.941,11.007,2.747,4.517,-0.916,4.211,2.92,-9.898,-0.905,11.037,-3.815,0.122,-12.899,-1.475,-3.164,-2.899,-7.009,-7.812,-6.399,-6.602,-5.87,-9.298,-11.2,-10.386,-13.458,8.301,8.108,-1.353,3.265,14.537,7.731,6.185,15.594,3.764,1.831,0.753,3.113,7.558,5.422,-5.564,-4.791,7.985,-3.052,-4.771,-6.449,-8.108,-0.051,1.18,13.682,-0.743,2.848,-9.389,-10.925,-6.989,-8.138,-3.092,8.647,8.331,a
8.657,13.59,5.819,-2.614,7.1,7.497,4.964,9.542,1.77,5.005,-4.822,3.723,1.943,-7.456,-2.858,10.061,-0.397,-1.831,-6.551,-4.893,-2.675,-2.411,-6.032,-6.348,-4.934,-5.137,-10.264,-7.833,-9.735,-9.41,-12.482,8.301,7.619,14.76,2.289,11.119,-3.011,6.673,10.712,1.811,0.854,1.729,-2.747,5.605,4.445,-5.076,-7.721,7.497,-3.052,-3.794,-5.961,-6.154,-1.027,-1.75,-0.478,-0.254,2.36,-8.413,-10.437,-6.012,-6.673,-2.604,8.158,9.308,a
6.704,15.055,3.377,-2.126,5.636,6.521,3.499,4.659,2.747,4.028,-4.822,2.258,1.943,-4.527,-3.347,7.131,-0.885,1.099,-2.157,-0.01,-2.187,-1.923,-5.544,-5.859,-3.469,-4.649,-14.659,-6.856,-8.759,-8.921,-11.993,6.836,4.69,26.967,0.336,2.818,-8.382,0.814,2.899,-0.142,0.366,1.729,-7.629,3.164,3.469,-4.588,-8.209,6.521,-3.052,-3.306,-7.426,-5.666,-1.027,0.203,2.94,-5.625,1.872,-7.436,-9.46,-5.035,-6.185,-2.116,6.205,6.866,a
3.286,9.196,0.448,-0.661,4.171,4.079,2.035,0.264,3.723,1.099,-1.892,0.793,1.943,-4.038,-2.858,2.736,1.556,2.563,-8.504,0.478,-1.699,-1.434,-5.544,-5.371,-2.981,-4.649,-16.612,-5.88,-8.27,-7.945,-11.505,2.93,0.783,25.503,-0.641,-5.971,-7.894,-7.487,-1.495,-1.607,1.343,-0.712,-8.606,1.211,2.981,-4.1,-6.744,4.567,-3.052,-3.794,-8.403,-5.666,-0.539,2.645,-0.478,-7.09,0.895,-6.948,-8.972,-4.547,-5.208,-1.628,3.276,1.984,a
1.333,-0.081,-1.994,1.292,2.218,2.126,1.058,-2.665,4.211,-1.343,2.014,0.305,2.431,-6.48,-1.394,-0.193,23.041,-5.249,2.726,-11.729,-1.211,-1.434,-5.056,-4.883,-2.981,-5.137,-13.682,-5.391,-7.294,-6.968,-11.505,-0.977,-0.193,12.319,-0.641,-9.389,-4.476,-11.882,0.946,-0.631,2.319,-3.153,-5.188,0.234,2.492,-4.1,-3.326,2.126,-3.052,-3.794,-8.891,-5.666,5.809,-2.726,-9.755,-4.649,0.407,-6.46,-7.996,-4.059,-5.208,-1.139,0.834,-2.411,a
0.356,-5.941,-2.97,5.198,0.753,0.173,0.57,-1.689,3.723,-1.343,3.967,0.305,2.431,-8.433,0.071,-0.193,-13.092,7.446,-12.41,-0.987,-1.211,-0.946,-4.567,-3.906,-2.981,-5.137,-8.799,-5.391,-6.317,-5.503,-10.529,-3.418,1.76,-4.283,0.336,-6.46,0.895,-8.952,4.364,0.834,2.319,-4.13,-0.793,0.722,2.004,-4.1,-0.885,0.661,-3.052,-3.794,-7.914,-5.178,-5.422,3.133,-19.521,-5.625,0.895,-5.483,-7.019,-3.571,-4.232,-1.139,-0.142,-3.876,a
1.333,-3.011,-1.506,10.081,0.753,-0.315,1.058,0.753,1.77,0.61,2.502,1.282,1.943,-6.48,-0.417,3.225,-3.326,1.587,-6.063,-6.358,-1.699,-0.458,-4.079,-2.93,-2.492,-4.649,-4.893,-3.927,-4.364,-4.038,-8.087,-2.441,5.178,-12.583,0.336,0.376,6.266,-0.651,3.876,3.276,1.343,-3.153,1.648,1.699,2.004,-4.1,-0.885,0.661,-3.052,-2.818,-7.426,-3.225,-1.027,0.692,-1.943,-11.973,0.895,-4.018,-5.066,-2.594,-4.232,-1.139,0.834,-1.923,a
2.309,5.29,0.448,13.987,1.241,-0.315,1.058,3.682,-1.16,3.052,-1.892,2.258,0.966,-1.597,-2.858,7.131,0.092,-1.831,-5.086,0.478,-2.187,0.031,-4.079,-2.441,-1.516,-4.161,-4.405,-2.462,-2.899,-3.062,-4.669,0,6.643,-9.165,-1.129,5.259,7.731,6.673,-1.495,4.252,-0.122,-0.224,1.16,1.699,1.027,-3.611,-4.791,1.638,-3.052,-1.841,-6.938,-2.248,0.926,1.18,-6.826,-0.743,1.383,-2.553,-3.113,-2.106,-4.232,-1.139,1.811,0.519,a
1.821,12.126,1.424,13.499,0.753,-0.315,1.058,4.171,-3.113,4.028,-5.31,3.235,-0.01,2.797,-6.276,8.596,5.951,-3.296,5.656,-5.381,-2.187,0.031,-4.567,-2.441,-2.004,-4.649,-6.846,-2.462,-2.899,-3.062,-2.228,1.953,4.201,0.6,-2.594,5.259,1.383,7.65,-6.378,3.276,-1.587,2.218,-0.793,1.699,0.051,-4.1,-9.674,2.126,-2.075,-0.376,-6.449,-1.76,1.902,-2.238,-12.685,-8.067,1.383,-2.065,-2.136,-1.617,-4.232,-1.628,1.322,1.984,a
0.356,12.126,0.936,9.104,0.264,-0.804,0.57,3.682,-3.113,3.052,-5.31,2.747,0.478,3.286,-8.23,6.643,1.068,-2.319,-22.664,-5.381,-2.187,0.031,-4.567,-2.93,-2.492,-6.114,-9.776,-3.927,-4.364,-4.038,-3.204,1.465,-0.193,7.924,-2.106,2.818,-6.917,3.255,-4.425,2.299,-1.099,1.729,-2.258,1.699,0.051,-5.076,-12.604,1.638,-1.587,-0.376,-6.449,-3.225,0.437,-0.285,-8.291,0.722,1.383,-3.042,-3.113,-2.106,-4.232,-1.628,0.346,1.007,a
-0.621,6.266,-1.017,2.757,0.264,-0.315,1.058,3.682,-0.671,1.099,-0.916,2.747,1.455,0.356,-6.765,3.225,4.486,0.122,3.703,1.455,-2.187,-0.458,-4.079,-3.906,-2.981,-7.09,-9.776,-5.391,-5.829,-5.992,-6.134,0,-2.146,8.413,0.824,1.841,-9.359,-0.651,2.411,2.299,1.343,-0.224,-1.282,2.675,1.027,-5.564,-11.139,1.149,-1.587,-1.353,-5.473,-4.69,0.437,-0.285,-5.361,-8.067,1.383,-4.995,-5.554,-2.594,-4.72,-1.628,-0.631,-1.434,a
-0.132,-0.57,-2.482,-3.591,1.729,2.614,2.035,4.171,3.235,-0.366,4.456,2.258,2.431,-1.597,-2.37,0.783,-0.885,0.122,-4.598,-5.381,-2.187,-0.946,-3.591,-4.883,-3.469,-7.09,-7.823,-6.856,-7.294,-7.945,-10.04,-0.488,-0.682,4.506,4.242,4.283,-1.546,-0.163,8.27,3.276,3.784,-2.177,0.671,4.14,2.492,-4.1,-5.28,1.638,-1.587,-2.33,-4.496,-6.154,-2.004,-0.285,-5.849,-5.137,2.36,-6.46,-8.484,-3.571,-4.72,-1.628,-0.142,-2.411,a
2.309,-2.523,-2.482,-7.497,4.171,7.009,3.499,6.124,6.653,0.61,7.874,2.747,3.408,0.844,1.536,1.76,-0.397,-1.343,-0.692,-6.358,-1.699,-1.434,-3.103,-4.883,-2.981,-6.114,-5.87,-6.368,-6.805,-8.921,-11.505,1.465,3.713,0.6,6.195,9.165,7.243,3.743,8.27,3.764,4.761,-1.689,1.648,5.117,4.445,-1.17,0.58,4.079,-1.587,-3.306,-4.496,-6.643,0.437,2.157,2.452,-0.254,2.36,-6.46,-9.46,-3.571,-4.72,-1.628,2.299,-0.458,a
5.239,0.407,-0.041,-9.45,5.636,10.915,4.476,6.612,7.141,2.563,5.92,2.747,3.408,5.727,3.001,5.666,4.486,2.563,-7.528,-3.428,-1.211,-1.434,-3.103,-5.371,-2.492,-5.137,-5.87,-5.391,-5.829,-7.456,-10.04,4.883,7.131,0.6,5.219,11.607,8.219,6.185,5.341,2.787,4.272,0.264,0.183,4.628,5.91,2.248,3.021,6.032,-0.61,-3.306,-4.985,-6.643,0.926,2.157,-6.826,-6.602,2.36,-5.971,-8.484,-3.571,-4.232,-1.139,4.74,3.937,a
7.192,5.29,3.377,-7.985,6.124,12.38,4.476,6.612,5.676,4.028,0.061,2.258,2.431,8.657,0.071,9.084,-2.838,-1.343,-0.692,-2.94,-0.234,-0.946,-3.103,-5.371,-2.004,-4.649,-8.311,-4.903,-4.364,-6.48,-7.111,7.324,6.154,4.506,3.265,9.165,1.383,2.767,4.364,1.322,2.319,1.729,-2.258,3.652,5.422,2.736,1.068,7.497,0.854,-2.818,-5.473,-6.154,-2.981,-1.75,-8.291,-3.672,1.872,-4.995,-6.531,-3.571,-3.743,-1.139,6.694,7.843,a
6.704,8.219,5.819,-3.591,4.659,10.427,3.499,5.147,2.747,3.54,-4.822,1.77,1.943,6.215,-3.347,11.525,-4.303,2.563,-2.157,-2.452,0.254,-0.946,-3.591,-5.859,-2.492,-5.137,-10.264,-5.391,-4.364,-5.503,-4.669,7.324,4.201,9.389,1.801,3.306,-2.523,-3.581,6.805,1.322,0.366,1.241,-3.235,3.164,3.469,-0.682,-2.838,6.521,1.343,-2.33,-5.961,-6.154,-2.981,1.18,-28.31,-7.09,1.383,-4.506,-5.554,-3.082,-3.743,-0.651,6.694,8.82,a
5.239,7.731,5.819,4.222,3.194,6.521,2.523,3.682,0.793,2.563,-5.798,1.77,1.455,-1.597,-4.323,12.99,0.58,2.075,-2.157,1.943,-0.234,-0.458,-4.079,-5.859,-2.981,-6.114,-10.264,-6.368,-4.852,-5.992,-5.157,5.371,3.225,13.295,1.801,-1.088,1.872,-6.999,9.247,3.276,0.366,-0.712,-2.258,3.164,2.004,-6.541,-5.28,4.567,0.366,-2.33,-6.449,-6.643,1.414,2.645,1.963,3.652,1.383,-4.995,-5.554,-3.571,-3.743,-1.139,5.717,6.866,a
4.262,7.731,4.354,13.499,2.706,4.079,3.011,4.171,1.282,2.075,-0.916,2.747,1.943,-8.921,-0.905,12.99,0.58,5.005,2.726,6.826,-1.699,-0.458,-4.567,-5.859,-3.469,-6.602,-7.334,-6.856,-6.317,-6.968,-6.622,3.418,4.201,15.737,2.289,-1.088,10.173,-3.581,7.782,5.717,1.831,-2.665,0.183,5.117,2.004,-10.447,-3.815,4.079,-2.075,-2.818,-6.938,-6.643,-0.539,2.645,-47.841,-2.207,1.872,-5.971,-7.019,-3.571,-4.72,-1.628,4.252,4.425,a
4.751,9.196,2.401,19.847,4.171,5.056,4.964,5.636,3.235,3.052,5.432,4.211,2.92,-12.339,4.954,12.502,0.092,5.981,-2.157,0.966,-2.675,-0.458,-5.056,-5.371,-3.469,-6.602,-4.893,-6.368,-7.294,-7.456,-8.575,3.906,6.154,15.249,2.289,3.306,10.173,4.232,3.387,6.205,4.272,-1.689,2.136,7.07,3.957,-10.935,-0.397,5.056,-5.005,-2.33,-6.938,-6.154,-3.957,-0.285,2.94,-1.231,3.337,-6.46,-7.996,-3.571,-5.208,-1.628,4.74,2.96,a
5.727,11.149,1.912,18.382,6.124,7.985,5.941,7.589,5.676,4.517,9.338,4.7,3.896,-10.874,8.372,11.037,0.58,-6.226,-5.086,-0.987,-3.652,-0.458,-5.056,-3.906,-2.492,-4.649,-3.428,-4.903,-6.805,-6.968,-9.064,6.348,6.154,11.831,0.824,7.701,-1.546,9.603,1.434,5.229,5.737,1.241,1.648,7.558,5.91,-7.029,1.556,7.009,-5.493,-1.841,-5.961,-5.178,-0.051,-1.75,-10.732,0.722,3.825,-6.46,-8.484,-3.082,-5.697,-1.628,5.717,2.96,a
7.192,12.614,3.866,10.081,6.612,10.427,5.941,8.565,6.653,5.981,9.827,4.7,3.896,-6.968,6.907,9.572,13.763,-3.296,-0.692,-3.916,-2.675,0.031,-4.079,-2.441,-1.027,-2.696,-3.916,-3.438,-5.829,-5.992,-8.087,8.301,3.713,4.995,0.336,9.654,-14.242,8.138,2.899,3.764,5.249,3.682,-0.305,6.582,6.399,-2.146,0.58,7.985,-3.54,-0.376,-3.52,-2.736,3.855,-1.75,-3.896,-22.227,3.825,-4.506,-7.019,-1.617,-4.72,-1.628,6.694,3.448,a
7.192,10.661,5.819,-0.173,5.147,8.962,4.476,7.1,5.188,4.517,7.385,3.235,2.431,-3.55,1.536,7.619,2.533,-5.249,-1.18,-6.358,-1.211,1.007,-2.126,-0.977,-0.539,-0.254,-5.87,-2.462,-4.852,-4.038,-6.622,7.324,2.248,-3.306,1.801,8.189,-16.683,3.255,6.317,2.787,2.808,4.659,-1.282,4.628,5.422,1.76,-3.815,7.009,-0.61,0.6,-1.078,-1.272,0.926,-1.75,-16.591,-11.485,2.36,-3.53,-5.554,-0.641,-3.255,-0.651,6.694,3.448,a
4.751,6.266,6.795,-6.032,3.194,5.056,2.523,4.171,1.77,2.563,4.944,2.258,0.966,-0.132,-3.835,6.643,-1.862,-0.366,-12.41,-4.405,0.254,1.007,-1.149,-0.488,-0.051,0.722,-7.823,-2.462,-4.852,-3.55,-6.134,3.418,2.248,-9.654,4.242,5.259,-6.917,0.326,6.317,2.787,0.366,3.194,-0.793,2.187,2.981,3.713,-7.721,4.567,0.854,1.577,-0.59,-0.295,-1.027,0.203,1.475,-6.114,0.895,-3.042,-5.066,0.336,-2.279,-0.163,4.74,1.984,a
2.797,2.848,5.33,-4.567,2.706,1.149,1.058,1.729,-1.16,1.099,2.502,1.282,-0.01,4.262,-6.765,6.643,-3.326,2.563,-15.34,4.873,0.254,1.007,-1.149,-0.977,-1.027,0.234,-9.776,-3.438,-5.341,-5.015,-7.111,-0.488,5.666,-11.119,5.219,2.818,6.266,2.279,4.364,2.299,-0.61,1.241,0.183,1.699,1.027,3.713,-9.186,2.614,0.366,1.088,-1.567,-0.783,-1.027,3.133,-0.966,-10.508,0.407,-3.53,-6.042,-0.153,-2.767,-0.163,2.787,-0.458,a
2.309,2.848,1.424,0.804,3.194,0.173,1.546,1.729,-2.136,1.099,0.061,1.282,0.478,9.633,-6.765,7.131,-4.303,3.052,-5.086,1.943,-0.722,0.031,-3.591,-2.93,-2.981,-3.184,-11.241,-5.88,-6.805,-6.968,-9.064,-2.441,8.596,-6.724,2.289,2.33,11.149,5.208,4.852,0.834,-0.122,0.264,-0.793,3.164,1.516,3.225,-8.209,2.614,-1.099,-0.376,-5.473,-2.736,-2.492,2.157,-12.685,-5.625,0.895,-5.483,-7.996,-2.106,-4.232,-0.651,2.299,-1.923,a
4.751,6.755,-3.459,5.686,5.636,3.591,3.499,3.682,-0.671,2.563,-2.869,2.258,1.943,12.075,-6.276,8.108,3.021,-0.854,-3.133,-3.428,-1.699,-1.434,-6.032,-4.883,-4.934,-7.09,-12.217,-7.833,-8.27,-9.41,-11.017,0,9.572,3.042,-1.617,3.306,7.243,4.232,9.735,0.834,1.831,-0.224,-2.258,5.117,2.981,2.248,-7.233,5.544,-2.563,-2.33,-9.867,-5.178,-0.051,-0.285,-8.291,3.164,2.36,-7.436,-10.437,-4.547,-6.185,-1.628,4.252,-1.434,a
9.145,11.637,-5.9,7.151,7.589,8.962,5.941,6.612,2.258,4.028,-3.845,3.235,3.896,8.169,-7.253,9.572,3.998,1.587,-1.18,-0.01,-2.187,-2.411,-7.985,-6.348,-5.91,-8.555,-12.217,-9.298,-9.247,-11.363,-11.993,4.883,8.596,13.295,-2.594,5.747,2.848,-0.163,16.571,2.299,3.296,0.264,-3.235,8.046,5.422,0.295,-7.721,8.962,-2.075,-4.283,-11.82,-6.154,1.902,1.668,-4.384,1.699,3.825,-8.901,-11.414,-6.012,-7.65,-2.116,8.647,1.495,a
13.051,15.055,-5.9,6.175,9.054,13.357,7.894,9.054,5.188,5.493,-2.38,4.211,4.384,0.356,-7.741,11.525,7.416,0.61,-0.692,-1.963,-2.675,-2.899,-8.474,-6.348,-5.91,-7.579,-11.241,-9.298,-9.735,-11.851,-11.993,9.766,7.619,20.131,-0.153,8.189,4.801,-4.069,18.036,4.74,3.784,0.753,-1.282,10,7.375,-1.658,-8.698,11.403,-1.587,-3.794,-11.332,-5.666,-0.539,-1.75,-9.755,-0.254,4.313,-8.901,-11.414,-6.012,-7.65,-2.604,12.553,6.378,a
14.516,16.032,-2.97,6.175,9.054,13.845,8.382,10.518,6.653,5.005,1.526,5.188,3.896,-5.992,-6.765,12.502,-4.791,4.028,3.215,-1.963,-2.675,-1.923,-7.009,-4.883,-4.934,-3.184,-10.264,-7.345,-9.247,-10.874,-11.017,12.695,6.643,22.085,4.242,9.654,10.661,-3.092,13.153,6.694,3.296,1.241,2.136,10.488,7.375,-2.635,-9.674,11.403,-2.075,-2.33,-9.379,-4.201,-2.492,1.18,-12.685,0.234,4.313,-8.413,-10.437,-4.547,-7.161,-2.604,14.018,10.284,a
13.54,15.544,0.448,9.104,8.077,11.403,6.917,10.03,5.676,5.981,4.944,5.188,2.431,-5.503,-2.858,13.967,-1.373,1.587,0.773,3.408,-3.164,-0.458,-6.032,-2.93,-3.957,0.234,-10.752,-4.903,-8.759,-8.433,-10.04,13.672,6.154,19.155,6.683,8.677,11.149,1.79,5.829,6.205,2.319,2.218,4.089,9.023,6.399,-2.146,-8.209,9.939,-4.028,-0.376,-8.403,-2.736,0.926,2.157,5.87,3.164,3.825,-6.948,-8.972,-3.082,-6.673,-2.604,12.553,11.261,a
10.61,14.567,4.842,12.034,7.1,7.985,5.452,8.077,3.723,6.958,5.92,5.676,1.455,1.333,2.513,15.432,1.556,1.099,-4.11,2.92,-3.652,0.519,-5.056,-1.953,-2.981,1.699,-10.264,-3.438,-7.294,-5.503,-9.552,12.207,5.666,14.76,5.707,6.236,3.337,6.185,3.876,4.252,1.343,3.194,2.625,7.07,4.934,-0.193,-4.791,7.985,-6.47,0.6,-8.403,-2.248,0.926,1.18,-11.709,-10.02,2.848,-5.483,-7.507,-2.106,-5.697,-2.116,10.111,9.796,a
8.657,13.59,8.26,13.499,6.612,6.032,3.988,6.124,2.258,7.446,3.479,4.211,1.455,8.169,5.442,16.897,0.092,3.54,3.215,0.966,-3.164,1.007,-4.567,-1.953,-2.492,0.722,-9.288,-2.95,-5.341,-3.55,-8.575,11.719,6.154,11.342,3.265,4.283,-5.452,8.626,8.27,3.276,0.854,4.171,-1.282,4.628,3.957,1.76,-1.373,7.009,-6.47,0.6,-8.403,-2.736,-3.469,-0.773,1.963,-0.743,2.36,-4.018,-5.554,-1.617,-4.72,-1.628,8.158,7.843,a
10.122,13.102,11.678,12.522,6.612,7.497,3.499,5.636,2.258,6.958,1.038,3.235,2.431,8.657,4.954,18.85,3.998,4.028,6.144,-3.916,-2.187,0.031,-4.079,-2.93,-2.004,-0.743,-5.87,-2.95,-3.876,-2.574,-6.622,12.207,8.108,10.366,3.265,4.771,-6.917,9.603,13.641,3.764,1.831,4.171,-3.723,4.14,3.957,1.76,0.58,6.521,-3.052,-0.376,-5.961,-3.225,-0.539,-1.261,-48.33,-9.532,2.36,-3.042,-4.578,-1.617,-4.232,-1.139,9.135,6.378,a
13.051,11.149,13.631,12.522,8.077,10.427,4.476,7.1,4.7,5.981,2.502,3.235,3.408,3.774,3.489,19.826,3.998,0.122,6.144,-6.846,-0.722,-0.458,-2.614,-3.418,-1.516,-0.743,-1.475,-2.95,-3.387,-2.085,-4.669,13.672,11.037,10.366,5.707,7.701,0.407,10.579,15.594,5.717,2.808,3.194,-2.747,5.117,5.422,0.295,0.58,7.985,0.366,-0.865,-2.543,-2.248,3.367,0.692,-1.943,-5.137,2.848,-2.553,-3.601,-1.617,-3.255,-0.651,12.553,7.355,a
15.493,10.173,13.631,13.987,9.542,13.357,5.941,9.542,6.653,5.005,7.874,3.723,3.896,-2.085,3.489,21.291,-0.397,1.587,-8.016,4.873,-0.234,-0.458,-1.638,-2.441,-1.516,0.722,1.455,-2.95,-3.387,-3.062,-3.204,15.625,13.479,10.854,9.125,11.607,9.196,11.556,14.13,6.694,4.272,2.706,0.183,7.07,6.887,-0.682,0.58,9.45,2.319,-0.865,0.387,-1.272,-1.027,1.668,-2.92,-1.231,2.848,-3.042,-3.601,-1.617,-3.255,-1.628,15.483,9.308,a
16.469,10.661,11.19,15.452,11.007,14.821,6.917,11.495,8.118,5.493,14.709,4.7,3.896,-3.062,6.419,22.268,2.533,3.54,-8.016,-0.01,-0.722,-0.458,-1.149,-1.953,-2.492,1.211,0.478,-3.438,-4.852,-5.015,-3.693,16.602,13.967,11.342,10.59,13.072,10.661,9.115,13.153,6.694,5.249,2.706,2.625,9.023,7.863,0.295,1.068,10.915,0.854,-0.376,0.387,-0.295,-1.516,-0.285,-16.591,-1.719,3.337,-3.53,-5.066,-1.617,-3.743,-1.628,15.483,10.773,a
14.028,13.102,8.26,13.011,11.007,13.845,6.917,11.983,9.094,6.47,17.151,5.188,3.896,0.844,8.372,23.244,-0.885,0.122,-9.969,5.849,-2.187,0.031,-2.614,-1.953,-2.981,-0.743,-3.916,-5.391,-6.317,-6.48,-6.134,16.602,12.502,12.319,9.125,12.583,7.243,3.255,15.106,5.229,5.737,3.194,2.625,9.511,7.863,1.76,1.556,11.403,-2.563,-0.376,-1.567,-1.76,-0.539,0.692,-11.22,-6.114,3.825,-5.483,-7.507,-2.594,-5.208,-2.116,13.529,10.284,a
11.587,17.008,5.819,5.198,10.03,11.892,6.429,10.518,8.606,6.958,12.756,5.188,4.384,3.774,7.395,24.221,-0.885,3.54,1.75,2.92,-2.675,-0.458,-4.079,-3.906,-3.957,-4.161,-8.799,-7.833,-7.782,-8.433,-9.552,16.602,12.014,13.784,6.195,11.119,3.337,-1.628,17.059,4.252,5.737,2.706,1.648,8.046,6.887,2.736,1.068,9.939,-4.028,-1.353,-4.496,-4.69,-1.027,2.645,11.241,5.117,3.825,-6.948,-9.949,-3.571,-6.185,-2.604,10.6,8.331,a
10.122,19.938,5.33,-3.103,9.054,10.427,5.452,8.565,7.629,6.47,3.479,4.7,4.384,2.797,2.024,24.709,1.556,4.517,-1.668,6.337,-2.675,-0.946,-5.056,-5.859,-3.957,-6.114,-11.241,-8.321,-8.27,-8.921,-11.505,15.625,12.99,14.76,4.242,10.63,2.848,-1.139,17.059,5.229,5.249,1.729,1.16,6.582,6.399,2.248,-0.885,8.962,-3.052,-2.33,-5.473,-7.619,-1.027,1.18,-17.568,-0.743,3.825,-7.436,-10.437,-4.547,-6.185,-2.604,9.623,6.866,a
11.098,20.915,6.795,-6.032,8.565,10.427,5.452,8.077,7.141,5.981,-5.31,4.211,3.896,-0.132,-4.323,24.709,13.275,-2.319,6.144,-3.428,-1.699,-1.923,-4.567,-6.836,-3.469,-3.672,-10.264,-6.856,-7.294,-8.433,-10.529,15.625,14.455,14.272,4.242,11.607,2.36,4.232,13.641,6.694,3.296,1.729,2.625,6.093,5.91,0.783,-2.838,8.474,-0.61,-2.818,-5.473,-8.596,2.879,-1.261,11.241,-2.696,3.337,-6.948,-8.972,-4.547,-5.697,-2.116,11.088,7.843,a
13.54,19.45,9.237,-0.661,8.565,11.403,5.452,9.054,6.165,6.47,-7.751,4.211,2.92,0.356,-6.765,23.733,23.529,-1.831,-9.481,-3.916,-0.722,-1.434,-3.591,-5.371,-2.492,1.211,-6.358,-4.415,-5.829,-5.503,-6.622,16.113,14.943,11.342,5.707,13.56,-1.058,11.068,10.712,7.67,1.343,3.194,4.578,7.07,6.399,1.272,-2.838,8.474,0.854,-2.33,-4.985,-6.154,5.809,-2.238,0.01,-8.067,3.337,-4.506,-5.554,-3.082,-4.232,-1.628,13.529,9.796,a
15.981,17.497,10.213,9.593,9.542,11.892,5.941,11.007,5.188,8.423,-4.333,4.7,2.431,7.192,-4.323,23.733,-2.35,4.517,10.05,6.337,-0.722,-0.458,-3.103,-2.441,-1.027,5.117,-2.94,-1.973,-4.364,-3.062,-2.716,16.602,12.502,6.46,6.683,13.56,-4.476,14.974,11.2,7.182,0.366,5.636,4.578,8.046,6.399,3.225,-1.373,8.962,-0.122,-0.376,-4.985,-2.248,-2.492,1.18,4.893,-4.649,3.337,-2.553,-2.625,-1.129,-3.743,-1.628,15.971,11.749,a
16.469,15.544,8.26,18.87,10.03,11.892,5.941,11.495,3.235,9.399,1.038,5.188,1.943,16.469,1.048,24.221,7.416,2.075,4.191,2.431,-1.211,0.519,-3.103,-0.488,-1.027,4.628,-1.475,-1.973,-3.876,-1.597,-1.74,17.578,9.084,2.553,7.172,11.607,-2.035,13.997,14.13,4.74,0.366,7.1,2.625,8.046,5.91,6.154,-0.397,9.939,-1.587,1.088,-5.473,0.193,1.414,0.692,-26.845,-2.207,2.848,-1.577,-1.648,-0.153,-2.767,-1.139,15.971,11.749,a
15.004,14.079,4.842,21.8,9.542,9.939,4.964,10.03,2.747,9.399,3.967,4.211,1.943,20.376,3.977,23.733,-14.069,6.47,-4.11,7.802,-0.722,1.007,-2.614,0.488,-1.027,0.722,-1.963,-2.95,-3.387,-2.574,-3.204,17.578,7.131,4.018,6.683,7.701,7.243,10.091,15.594,2.299,1.831,6.124,-0.793,5.605,4.934,6.154,-2.35,8.962,-1.587,2.065,-4.985,0.682,-4.934,3.621,-2.431,2.187,2.36,-2.065,-3.113,-0.153,-2.767,-0.651,14.506,9.308,a
12.563,13.59,0.936,19.358,8.565,8.474,3.499,6.612,2.258,6.958,2.014,2.747,1.943,13.54,2.513,21.291,-2.35,3.052,-3.133,1.455,0.254,0.519,-2.126,-0.488,-0.539,-3.184,-4.405,-3.927,-3.876,-4.527,-6.134,16.602,8.108,11.342,5.707,4.771,16.032,7.161,13.153,1.322,2.808,3.682,-3.723,3.652,3.957,3.713,-6.256,7.985,1.343,1.577,-3.031,-1.272,-2.492,-0.285,-18.545,-5.625,1.383,-3.042,-5.554,-0.641,-2.279,-0.651,12.065,6.866,a
10.61,13.59,-0.041,16.429,8.077,7.009,3.011,4.659,3.235,5.005,-0.916,1.77,2.92,2.309,-0.905,17.385,2.533,5.493,-3.133,1.455,1.231,0.031,-1.149,-1.465,-0.051,-3.184,-6.846,-3.438,-3.876,-5.992,-7.599,15.137,11.037,21.108,4.73,3.306,17.985,6.673,10.223,2.787,3.784,1.241,-4.7,2.675,3.469,-1.17,-9.186,7.497,3.784,0.6,-2.055,-3.225,-2.004,-0.773,-4.384,-6.114,0.895,-3.53,-6.531,-1.129,-1.79,-0.163,10.111,5.89,a
10.61,14.567,1.424,15.452,8.077,7.009,3.499,4.659,4.211,4.517,-1.892,1.77,2.92,-5.992,-2.858,14.943,6.927,2.075,1.261,-1.475,1.231,0.031,-1.149,-1.465,0.437,0.234,-7.823,-1.485,-3.387,-5.503,-6.622,14.16,12.99,27.456,4.242,4.771,11.149,9.115,11.688,5.229,3.296,1.729,-3.235,4.14,3.957,-3.123,-8.698,7.985,3.296,0.112,-3.031,-2.736,4.344,0.692,-21.474,-9.532,1.383,-2.553,-6.042,-0.641,-1.302,-0.163,10.111,6.378,a
12.075,16.52,5.819,15.452,9.542,8.474,5.452,7.589,5.676,6.958,2.014,3.723,2.92,-3.55,-1.394,15.432,2.045,-1.343,-12.41,4.873,-0.234,0.519,-2.126,-0.488,0.437,3.164,-7.823,-0.509,-3.387,-4.038,-4.669,15.137,12.99,25.503,5.219,8.189,2.848,11.556,17.548,7.67,2.808,4.659,-0.305,8.046,5.422,-0.682,-3.815,9.45,-0.61,1.088,-5.473,-0.295,1.902,0.203,-9.755,-4.161,2.848,-1.577,-4.089,0.824,-2.279,-0.651,11.576,7.355,a
15.004,18.473,10.213,13.499,11.495,10.915,8.382,11.983,7.141,9.399,7.385,6.165,2.92,6.215,2.024,20.315,3.51,-1.831,9.074,-2.94,-2.675,1.495,-4.079,0.977,-0.539,3.652,-8.311,-1.485,-4.364,-3.062,-4.181,17.578,12.014,18.667,6.683,12.095,-1.058,10.091,22.919,8.158,2.808,6.612,2.625,12.441,7.863,4.201,0.58,11.892,-6.47,2.553,-7.914,1.658,-0.051,-2.726,-6.826,4.14,4.313,-2.065,-3.601,0.824,-3.743,-1.139,14.506,8.331,a
17.446,19.938,12.655,9.593,13.936,14.333,10.824,14.425,9.094,9.888,11.292,7.629,3.896,14.028,3.489,27.15,1.068,-0.854,0.285,-1.475,-4.628,1.495,-6.032,0.488,-1.516,0.234,-9.288,-4.415,-6.317,-4.038,-7.111,20.02,10.549,12.807,8.148,15.025,0.407,4.232,22.919,6.694,4.272,6.612,4.089,13.906,10.305,8.108,2.045,13.845,-9.399,2.553,-9.379,0.682,-0.051,-1.261,-0.478,4.628,5.778,-3.53,-5.554,-0.153,-5.697,-2.116,16.947,8.331,a
18.911,20.426,12.655,6.175,15.889,17.263,11.8,14.425,11.536,8.423,12.756,7.141,5.849,13.051,2.024,31.057,7.904,-2.319,7.609,-3.916,-4.628,0.519,-7.009,-1.953,-2.981,-3.184,-11.241,-6.856,-8.27,-6.48,-11.017,21.484,12.014,12.807,9.125,15.513,1.383,-2.604,17.548,4.252,6.714,3.194,3.113,11.953,11.77,8.108,-0.885,14.821,-7.935,1.577,-8.891,-2.248,3.855,-1.261,-1.943,2.675,6.266,-5.971,-8.972,-2.106,-6.185,-2.116,18.412,8.331,a
19.399,20.426,12.166,5.198,16.866,18.239,11.312,11.495,12.512,6.47,12.756,5.676,7.802,4.751,-1.394,30.08,6.927,-0.366,6.632,-2.94,-2.675,-0.946,-6.032,-4.395,-2.981,-4.649,-11.729,-7.345,-9.247,-8.921,-13.458,20.996,15.92,17.69,8.148,13.56,-0.57,-4.557,13.153,3.276,8.667,0.264,0.671,9.023,12.258,5.178,-3.815,14.821,-2.563,-0.376,-7.426,-5.178,1.902,-1.261,2.94,-9.043,6.266,-7.436,-10.925,-4.059,-6.185,-2.116,18.901,9.308,a
19.399,20.426,13.631,7.151,16.866,17.751,10.335,8.565,13,5.005,12.756,3.723,8.779,-4.527,-2.37,25.686,3.51,3.54,2.726,1.455,-0.234,-1.923,-4.567,-4.883,-2.004,-3.184,-9.776,-5.391,-8.27,-8.921,-11.505,20.02,21.291,21.108,7.66,10.63,-2.523,1.302,14.618,3.764,9.644,-0.712,-0.793,7.558,12.258,1.76,-3.326,14.333,2.319,-2.33,-5.473,-6.643,-0.539,0.203,-8.291,-14.414,5.778,-6.46,-9.949,-3.082,-5.208,-2.116,18.901,11.749,a
20.376,20.426,16.561,8.616,16.378,16.286,9.847,7.589,12.024,5.493,13.733,3.235,8.291,-6.48,0.559,20.803,0.58,5.981,1.75,3.896,1.231,-1.923,-2.614,-4.395,-1.027,-0.254,-5.381,-2.462,-5.341,-5.992,-6.622,19.531,25.686,18.667,9.125,9.165,1.872,10.579,21.454,4.252,9.155,1.241,0.671,8.046,11.77,0.295,1.068,14.333,4.272,-2.33,-3.031,-5.178,-0.539,1.668,2.94,-2.207,5.29,-4.018,-6.531,-2.106,-3.743,-1.628,19.877,14.679,a
22.329,20.426,19.002,9.104,16.866,14.821,10.335,9.054,11.536,7.446,14.221,3.723,6.826,-0.621,6.419,19.826,1.068,5.005,1.261,2.92,0.743,-1.434,-1.149,-2.93,-0.051,1.699,-1.475,-0.997,-2.411,-2.574,-2.228,20.508,26.174,12.807,13.031,8.677,13.102,15.951,25.848,4.252,8.179,3.682,6.042,10,11.77,-0.193,6.927,14.821,2.319,-1.841,-1.567,-2.736,-1.027,2.645,-22.451,-5.625,5.29,-1.577,-2.136,-0.641,-2.279,-1.139,21.342,18.097,a
23.305,20.915,18.514,8.616,17.843,14.333,11.312,11.495,11.536,7.935,11.78,5.188,6.826,4.751,11.79,22.756,5.463,0.61,0.773,1.455,-0.234,-0.458,-0.661,-1.953,-0.539,0.722,0.966,-1.485,-0.946,-0.621,-0.763,21.973,23.244,8.413,17.914,9.165,25.309,14.486,24.384,4.252,7.202,4.659,11.414,11.953,12.258,-0.682,8.392,15.798,-0.122,-1.353,-0.59,-2.248,1.414,-1.261,0.01,0.234,5.778,-0.6,-0.671,-0.641,-1.79,-1.139,23.295,20.538,a
23.794,20.426,14.119,10.081,18.819,14.821,12.777,13.448,12.512,6.958,7.874,5.676,7.314,4.751,13.743,27.15,7.416,-1.831,-4.11,-3.916,-1.699,-0.458,-0.661,-2.441,-1.516,-2.696,-0.01,-3.927,-1.434,-2.085,-3.693,22.949,18.85,7.924,19.867,9.654,28.727,9.603,19.989,4.74,6.714,4.171,13.855,12.929,13.234,-2.635,5.463,16.774,-1.587,-0.865,-0.59,-3.225,1.414,-1.75,-27.822,-9.532,6.755,-2.065,-2.625,-1.617,-1.79,-1.628,23.783,21.027,a
22.817,19.938,8.748,13.499,19.307,15.798,13.265,13.448,13.489,6.47,3.967,6.165,7.802,-0.621,12.767,29.592,13.763,-2.319,1.75,-4.893,-1.699,-0.946,-1.638,-3.906,-2.492,-6.602,-2.452,-6.368,-3.387,-5.992,-7.599,22.949,15.432,9.389,17.426,10.63,20.915,6.673,17.548,6.694,7.202,3.682,10.925,12.441,14.211,-4.1,1.068,17.263,-1.099,-0.865,-2.055,-5.178,4.832,-1.75,3.428,-8.067,7.243,-4.506,-6.042,-3.082,-3.255,-2.604,22.807,19.073,a
20.864,18.473,6.307,16.429,19.307,16.774,13.265,12.96,13.977,5.981,2.502,6.653,8.291,-4.527,9.837,29.104,0.58,1.587,-2.645,-2.94,-2.187,-0.946,-3.103,-4.395,-2.981,-7.09,-4.405,-6.368,-6.317,-8.433,-9.552,21.484,14.455,9.389,13.031,12.583,8.219,6.673,19.501,8.158,7.202,4.171,5.066,11.953,14.211,-3.123,-1.373,16.774,-0.61,-0.865,-4.008,-6.154,-0.051,0.203,-2.92,-8.067,7.243,-6.46,-8.484,-3.571,-4.72,-2.604,20.365,15.656,a
19.399,16.032,8.26,14.964,18.331,16.286,12.288,11.983,13,6.958,4.456,6.653,7.314,-0.621,5.931,26.662,3.51,2.563,-4.11,2.92,-2.187,-0.946,-4.567,-3.418,-2.981,-5.625,-5.381,-5.391,-7.782,-9.41,-8.087,20.02,14.943,8.413,9.125,12.583,-0.081,6.185,22.43,7.182,6.714,5.147,0.183,12.441,13.234,1.272,0.092,16.286,-0.61,-0.376,-5.961,-4.69,1.902,1.668,-11.22,-9.043,6.755,-6.948,-8.484,-3.082,-6.185,-2.604,18.901,12.726,a
18.422,13.59,13.631,9.104,17.354,15.31,11.312,11.007,12.024,6.958,7.385,6.165,6.337,9.633,2.513,23.733,-3.815,7.446,-7.039,4.873,-2.187,-0.458,-5.544,-2.93,-2.492,-3.672,-6.846,-4.415,-8.27,-7.945,-5.646,18.555,15.92,9.389,8.148,10.63,-1.058,2.767,21.454,3.276,6.226,4.659,-1.77,11.953,12.258,4.69,1.556,15.31,-1.587,0.112,-6.938,-2.736,-1.516,1.668,-2.92,-2.696,5.778,-5.483,-7.019,-2.594,-6.185,-2.604,17.924,10.284,a
17.446,11.637,18.026,3.733,15.889,12.868,10.335,9.054,11.536,5.493,8.362,5.188,5.849,18.911,-1.882,19.826,2.045,4.028,-2.157,-7.334,-2.187,-0.458,-5.056,-2.441,-2.492,-2.696,-7.823,-4.903,-7.782,-5.992,-4.669,16.602,16.408,13.784,8.636,5.747,-0.081,-0.163,17.059,0.346,6.226,1.729,0.183,10.488,10.793,5.178,0.58,13.845,-2.563,0.112,-6.449,-2.248,-1.516,-1.261,-10.244,-6.602,5.29,-4.506,-6.042,-2.594,-5.697,-2.116,16.947,8.82,a
15.981,11.637,17.537,3.245,13.936,11.403,8.87,6.612,11.047,3.54,7.874,3.723,5.849,18.422,-5.788,16.897,24.506,-4.761,-1.668,-6.846,-1.699,-1.434,-4.567,-3.906,-3.469,-3.672,-9.288,-6.856,-7.294,-6.48,-6.622,13.672,15.92,18.178,9.125,0.865,-1.546,0.326,11.688,0.346,5.737,-1.2,2.625,8.046,9.816,1.272,-2.838,12.38,-2.075,-1.353,-6.449,-4.201,5.32,-5.168,-8.779,-10.02,4.801,-4.995,-7.019,-3.571,-5.208,-2.116,14.994,7.843,a
14.028,13.59,13.143,8.128,11.983,11.403,7.406,4.171,10.071,2.075,6.409,3.235,5.849,7.68,-6.765,13.479,-14.069,3.052,10.539,5.361,-0.722,-1.923,-4.079,-5.371,-3.957,-4.649,-9.288,-8.321,-7.294,-8.433,-10.04,10.742,14.455,15.737,7.66,0.865,-2.523,4.72,9.735,3.764,5.249,-1.2,3.601,5.117,8.84,-3.611,-5.768,10.915,-0.122,-2.818,-6.938,-6.643,-1.027,3.621,-2.431,5.605,4.313,-6.46,-9.46,-4.547,-5.208,-2.116,13.041,6.866,a
12.075,16.52,7.284,13.011,10.518,11.403,6.429,4.171,7.141,2.563,4.456,3.235,4.873,-5.503,-5.3,11.037,-1.373,0.61,-23.641,-0.01,-0.722,-2.411,-4.567,-6.348,-3.957,-5.137,-8.311,-8.809,-7.294,-10.386,-12.482,9.766,12.502,6.948,5.219,4.283,1.383,8.626,11.2,7.182,3.296,1.241,1.648,4.14,7.375,-5.076,-6.744,9.45,0.854,-2.818,-7.914,-7.619,0.926,1.18,-22.451,-2.207,3.825,-7.924,-10.925,-5.524,-5.208,-2.116,11.576,5.402,a
12.075,18.473,2.889,13.987,9.542,11.403,5.941,5.636,3.235,5.493,3.967,3.723,2.92,-10.874,-1.882,11.525,-2.35,1.587,-3.621,1.455,-1.211,-1.434,-5.544,-5.859,-3.469,-3.672,-6.358,-7.345,-7.782,-10.386,-11.993,10.254,10.549,-1.353,2.289,9.654,10.173,7.65,13.641,6.694,1.343,4.171,-1.282,5.117,6.399,-1.658,-5.28,8.962,0.366,-1.353,-7.914,-7.131,-2.492,-0.773,-10.732,-12.95,3.337,-7.924,-10.437,-5.035,-5.697,-1.628,11.576,4.913,a
13.54,18.962,3.377,7.64,9.542,10.915,5.941,8.077,1.282,7.446,3.967,4.7,1.943,-5.992,1.048,13.967,-3.326,-1.343,-2.157,-0.01,-1.211,-0.458,-5.544,-4.395,-2.492,-2.696,-4.893,-5.391,-7.294,-7.945,-8.575,12.207,9.084,-0.865,1.801,11.119,15.055,4.72,14.13,2.787,0.854,5.636,-4.211,7.558,5.91,3.713,-4.791,8.962,-1.587,0.112,-6.938,-5.666,-2.004,-1.261,-10.732,-12.461,3.337,-6.46,-8.484,-3.571,-6.185,-1.628,13.041,4.913,a
14.516,16.52,4.842,-1.638,10.518,10.427,6.917,8.565,2.258,7.446,4.456,4.7,2.431,3.774,1.536,16.897,1.556,-1.831,-2.157,-7.823,-1.699,0.031,-5.056,-3.418,-2.004,-1.719,-5.381,-4.415,-6.805,-5.015,-6.134,13.672,8.596,9.389,3.265,7.701,10.173,4.232,14.13,-0.631,2.319,3.682,-5.188,8.535,6.399,5.178,-6.256,9.939,-3.052,0.112,-4.985,-4.201,0.926,-0.285,-16.591,-7.579,3.825,-5.483,-6.531,-3.082,-5.208,-1.139,14.018,5.402,a
14.516,13.102,5.819,-8.474,11.983,9.939,7.894,7.1,6.165,5.005,4.944,3.723,4.384,10.122,1.048,19.826,5.951,-3.784,0.773,-6.846,-1.699,-0.458,-4.079,-3.418,-2.004,-2.207,-6.846,-4.903,-6.805,-4.527,-6.622,14.16,9.084,18.667,5.707,2.33,-0.081,6.673,13.153,0.346,4.761,1.241,-4.7,8.535,7.863,2.736,-8.698,10.915,-2.563,-0.865,-4.008,-5.178,0.926,-3.215,-14.638,-10.02,4.313,-4.995,-6.042,-3.082,-4.72,-1.139,14.018,6.866,a
13.54,9.196,4.354,-9.45,13.448,10.915,9.359,5.636,10.559,2.075,4.944,2.747,5.849,9.145,0.559,20.803,11.81,-4.761,-4.598,-6.358,-1.699,-0.946,-3.591,-3.906,-2.492,-2.696,-8.311,-5.88,-7.782,-5.992,-9.552,14.16,9.084,19.155,8.636,0.865,-4.476,7.65,13.153,3.276,5.737,0.753,-3.235,8.046,10.305,-3.123,-9.674,12.38,-1.587,-2.33,-4.985,-5.666,3.855,-3.215,-24.892,-17.344,5.29,-5.483,-7.996,-3.082,-4.72,-1.628,13.041,7.843,a
12.075,7.243,2.889,-3.103,14.425,12.38,9.847,5.636,12.024,1.587,3.967,2.747,6.337,2.797,2.024,20.315,-1.373,-3.784,-3.621,-8.311,-2.187,-1.434,-4.567,-4.395,-3.469,-3.184,-10.752,-7.345,-8.759,-8.921,-12.482,14.16,8.596,8.413,10.101,4.283,-0.57,2.767,14.13,5.229,4.761,1.241,-1.282,8.535,11.281,-6.053,-7.233,13.357,-1.587,-2.33,-6.938,-5.666,1.414,-0.285,-1.455,-3.184,5.778,-6.948,-10.437,-3.571,-5.697,-2.116,12.065,8.331,a
12.563,7.731,1.912,7.151,14.913,13.357,10.335,7.1,11.047,2.563,2.991,3.723,5.849,-3.062,3.977,18.361,-0.885,1.587,-15.34,2.92,-2.675,-1.434,-6.521,-4.883,-4.445,-4.161,-12.217,-7.833,-10.712,-11.363,-14.923,13.672,9.084,-4.283,10.101,9.654,5.778,-4.557,16.083,3.764,3.296,1.241,0.671,9.511,11.77,-5.564,-2.838,13.357,-3.052,-1.841,-8.891,-4.201,-0.539,1.18,-2.92,-4.649,6.266,-8.413,-11.902,-3.571,-7.161,-2.116,12.553,9.308,a
14.028,9.684,3.866,15.452,14.913,12.38,10.335,9.542,9.094,4.517,1.526,4.7,5.361,-6.968,3.977,15.432,-0.885,0.61,-2.645,-1.475,-4.14,-1.434,-8.474,-4.395,-4.934,-6.602,-13.682,-8.321,-11.2,-12.339,-14.923,13.184,11.037,-9.165,8.148,11.119,4.313,-6.999,17.548,0.346,2.808,-0.224,1.648,10.488,11.281,-3.123,0.58,13.357,-5.493,-1.353,-10.356,-4.201,-1.516,-0.773,-5.849,-18.809,6.266,-9.389,-12.39,-4.059,-8.138,-2.604,14.018,8.82,a
15.981,12.614,6.795,18.382,14.425,10.427,10.335,10.03,8.118,4.517,1.038,4.7,5.361,-7.456,0.071,11.525,-0.397,0.122,-4.598,-6.358,-4.14,-1.923,-8.962,-5.371,-5.422,-9.532,-14.17,-8.809,-11.2,-11.851,-12.97,12.207,13.967,-2.33,5.219,7.701,-2.035,-1.628,17.548,-0.631,4.761,-3.153,2.136,10,10.793,-1.658,0.58,12.38,-6.47,-2.818,-9.867,-6.154,-0.539,0.203,-1.455,1.699,5.778,-9.389,-11.414,-5.035,-8.626,-3.092,15.483,6.866,a
15.981,14.567,8.748,14.964,13.936,8.962,9.847,8.565,9.094,3.052,2.991,4.211,6.337,-6.968,-4.323,8.596,-0.885,-1.343,-3.621,-6.358,-3.164,-2.899,-7.985,-6.836,-6.399,-10.508,-14.17,-9.786,-10.712,-10.874,-11.505,10.742,16.897,9.389,3.265,2.818,-3.011,5.208,15.594,0.346,7.202,-5.107,1.16,9.023,10.793,-3.611,-1.862,11.892,-4.028,-5.259,-9.379,-9.084,-1.516,-1.261,-17.568,-8.067,6.266,-9.878,-10.437,-6.5,-8.138,-3.581,15.971,3.937,a
15.004,15.055,9.237,7.64,13.448,9.45,9.359,6.124,10.559,1.587,5.92,3.235,7.802,-5.503,-7.741,8.596,-2.35,-1.831,-4.598,-4.893,-1.699,-3.876,-7.009,-7.812,-6.399,-9.043,-12.705,-9.786,-9.735,-10.386,-10.529,9.766,16.897,16.713,3.754,-1.088,5.778,6.673,12.665,2.299,7.69,-3.642,0.671,7.558,10.305,-6.053,-5.768,11.892,-1.099,-6.724,-9.379,-11.037,-1.516,-1.261,-15.615,-9.532,5.778,-9.878,-10.437,-7.477,-8.138,-3.581,14.506,1.984,a
13.051,14.567,8.748,2.757,13.448,11.892,8.87,5.147,10.559,1.587,7.385,2.747,7.314,-1.597,-6.765,11.037,3.51,2.075,8.097,-4.893,-1.699,-3.876,-6.521,-7.812,-6.887,-6.114,-11.241,-8.809,-9.735,-10.386,-11.017,10.742,14.455,16.225,7.172,-0.6,18.473,2.279,10.223,3.276,5.737,-0.224,1.648,7.558,10.305,-6.053,-7.721,11.403,0.366,-5.747,-10.844,-10.549,1.902,1.668,-15.127,-8.067,5.778,-9.878,-10.925,-7.477,-7.65,-3.581,12.553,2.96,a
13.051,14.567,8.26,3.733,12.96,14.333,7.894,5.147,8.606,3.54,5.92,3.723,5.361,3.286,-3.835,14.943,-4.791,-2.808,-11.922,-8.799,-3.164,-2.899,-7.985,-6.836,-6.399,-4.161,-10.264,-8.321,-9.735,-10.386,-12.482,11.719,10.549,11.831,9.613,1.841,21.403,-3.092,9.735,2.787,2.319,2.218,4.089,7.07,8.84,-3.123,-8.698,11.403,-1.587,-3.306,-11.82,-8.108,-1.027,0.203,0.987,-4.161,5.29,-10.366,-11.414,-6.5,-8.138,-3.581,12.065,6.866,a
13.051,14.079,8.26,8.128,11.983,13.845,7.406,5.147,6.165,5.005,2.014,4.7,2.92,6.704,-1.882,16.408,0.58,-10.132,-2.157,-9.288,-4.628,-1.923,-8.962,-5.371,-6.399,-4.649,-9.288,-8.321,-9.735,-10.874,-13.458,11.719,7.619,9.389,10.101,3.794,10.173,-3.092,10.712,1.322,-0.122,2.218,5.066,6.582,7.863,-0.682,-9.674,10.427,-5.981,-1.841,-11.82,-6.154,-1.516,-4.679,-17.08,-9.532,4.801,-9.878,-11.902,-6.012,-8.626,-3.092,13.041,10.284,a
13.54,13.59,8.748,8.616,10.518,10.915,6.917,4.171,5.188,4.517,-1.404,4.7,2.431,4.262,-2.37,14.943,3.998,-7.69,-9.969,-11.241,-5.117,-1.923,-8.962,-5.859,-5.91,-7.09,-9.288,-8.809,-9.735,-10.874,-13.947,10.254,6.154,8.901,7.66,3.306,-7.406,1.302,11.2,0.346,-0.122,-0.712,3.601,5.605,7.375,-1.658,-11.139,8.962,-8.423,-1.841,-9.867,-7.131,0.926,-4.679,-5.361,-15.879,4.801,-9.878,-11.902,-6.012,-8.138,-3.092,13.529,10.284,a
12.075,10.661,8.748,0.315,8.565,5.544,5.941,2.218,5.188,0.61,-2.38,3.235,2.92,-4.038,-4.812,10.549,-0.397,-4.761,4.191,-5.381,-4.628,-2.411,-7.497,-7.324,-5.91,-9.532,-9.288,-9.786,-9.735,-10.874,-13.458,6.836,5.666,6.948,4.242,1.353,-19.124,2.279,8.27,-1.607,1.343,-4.13,-0.305,3.652,6.887,-7.029,-12.115,6.521,-7.446,-3.794,-7.914,-9.084,1.414,0.692,-13.173,-3.184,4.801,-9.878,-11.414,-6.5,-7.65,-2.604,12.065,5.89,a
8.169,5.29,6.307,-13.845,6.612,1.638,4.476,-0.224,6.165,-4.761,-0.916,1.282,3.896,-13.316,-5.3,6.154,-2.838,-2.808,-3.133,-6.846,-3.652,-3.387,-6.032,-8.301,-5.91,-10.508,-9.776,-9.786,-9.735,-11.363,-11.505,3.418,5.178,-0.865,1.801,-0.112,-21.566,-2.116,4.364,-3.072,2.319,-6.083,-4.7,2.187,5.91,-12.889,-11.139,4.079,-4.517,-5.747,-6.449,-11.037,-0.539,1.18,-1.455,-10.02,4.313,-9.878,-10.925,-6.989,-7.161,-2.604,7.67,-0.946,a
3.286,-1.546,2.401,-24.099,4.659,-0.804,3.011,-2.177,6.653,-8.667,2.014,0.305,4.384,-15.757,-2.858,3.713,-2.35,-1.831,-11.434,-6.846,-2.187,-3.387,-5.544,-8.789,-5.422,-9.043,-9.776,-8.321,-9.735,-11.363,-9.552,0.977,5.178,-12.095,1.312,-0.112,-16.195,-7.487,0.946,-4.537,2.808,-6.571,-7.141,1.211,4.934,-14.353,-7.721,2.614,-1.587,-6.236,-6.449,-11.037,-2.981,-1.75,-18.545,-14.414,3.825,-9.389,-9.949,-6.5,-6.673,-2.604,3.276,-5.341,a
0.356,-6.429,-1.994,-22.146,3.194,-1.78,2.035,-2.665,5.188,-8.667,3.967,-0.183,3.896,-9.898,2.024,4.201,-0.397,-4.272,-1.18,-5.381,-1.699,-3.387,-6.032,-7.324,-4.934,-7.579,-8.799,-7.345,-9.247,-10.874,-8.087,0,4.201,-19.419,0.336,-1.088,-8.382,-8.952,-0.031,-5.025,1.831,-6.083,-6.653,0.234,3.957,-10.935,-3.326,0.661,-1.099,-5.259,-7.426,-8.596,-0.051,-2.726,-12.685,-14.414,3.337,-8.413,-8.972,-5.035,-7.161,-2.116,0.346,-5.829,a
-0.621,-7.406,-5.412,-8.474,1.241,-1.78,1.058,-2.177,2.747,-6.226,4.456,0.305,2.431,0.844,5.442,4.69,10.834,-1.343,3.215,-6.846,-2.187,-2.411,-6.032,-5.859,-3.957,-7.09,-7.334,-6.856,-8.27,-9.898,-7.599,-0.977,3.225,-16.978,-3.082,-3.53,1.383,-6.022,1.434,-5.025,0.854,-6.083,-5.188,-0.254,2.492,-5.076,-0.397,-0.315,-3.052,-4.283,-7.914,-6.154,3.855,-0.285,-13.662,-14.414,2.848,-7.436,-9.46,-4.547,-6.673,-2.116,-0.631,-3.876,a
0.844,-5.452,-6.877,7.151,-0.224,-1.78,0.57,-1.689,-0.671,-2.808,2.502,0.793,1.455,6.215,3.977,3.225,4.486,-3.296,-12.899,-1.963,-2.187,-1.923,-6.032,-5.371,-3.957,-8.555,-6.358,-7.345,-6.805,-9.41,-9.552,-2.441,2.248,-6.724,-7.965,-7.436,10.173,-3.092,2.411,-3.56,-0.122,-5.595,-3.723,-0.743,0.539,-1.658,0.092,-0.804,-5.005,-3.794,-6.938,-6.154,-0.051,-1.261,-19.521,-6.602,2.36,-7.436,-9.949,-4.547,-6.185,-1.628,-0.142,-3.387,a
0.844,-1.546,-6.877,13.987,-1.2,-0.804,-0.407,-2.177,-3.113,-1.343,-0.916,0.305,-0.01,2.797,-2.37,-0.193,13.763,-3.784,0.773,-3.428,-2.187,-1.434,-4.567,-5.371,-3.469,-9.532,-7.823,-7.833,-6.317,-10.386,-11.505,-4.883,-0.193,3.53,-10.895,-9.878,12.614,-3.581,-0.031,-2.584,-1.587,-4.13,-3.235,-1.231,-0.437,-3.123,-1.862,-0.804,-4.517,-4.283,-5.473,-7.619,1.902,-2.238,-14.638,-4.161,1.872,-7.436,-11.414,-4.547,-4.72,-1.628,0.834,-4.364,a
0.356,1.383,-4.924,9.104,-1.689,0.661,-0.407,-2.665,-4.578,-1.831,-3.845,0.305,-0.498,-8.433,-10.183,-4.1,-8.698,-1.831,3.215,-4.405,-1.211,-1.923,-3.103,-5.859,-2.981,-10.02,-11.241,-8.321,-6.317,-11.851,-13.458,-5.371,-2.635,5.483,-8.942,-9.389,6.266,-6.999,-3.448,-1.607,-3.54,-2.177,-3.723,-1.231,-1.414,-7.029,-3.815,-0.804,-2.075,-4.283,-5.473,-9.084,-2.492,0.692,-15.127,-6.114,1.872,-7.924,-12.39,-4.547,-3.255,-1.139,0.346,-7.294,a
-0.621,2.36,-3.947,-1.638,-1.2,2.614,-0.895,-2.665,-4.578,-2.808,-6.775,-0.183,-0.498,-18.199,-15.554,-5.564,-3.815,-3.784,-4.11,-9.288,-0.234,-1.923,-3.103,-5.859,-2.492,-9.043,-15.147,-7.345,-7.294,-12.339,-12.97,-4.395,-5.076,-0.376,-2.594,-6.948,-4.964,-8.952,-5.402,-2.096,-4.028,-0.712,-4.7,-1.231,-1.414,-9.959,-5.28,-0.315,0.366,-3.306,-5.961,-8.596,-1.027,-0.773,5.87,-1.719,1.383,-7.924,-12.39,-4.059,-3.743,-0.651,-0.142,-8.759,a
-0.132,1.872,-3.947,-9.939,-0.224,2.614,-0.895,-2.177,-3.113,-3.296,-7.263,-0.183,-0.498,-19.175,-15.066,-3.611,0.092,-3.296,-8.504,-10.264,0.254,-1.434,-4.079,-4.395,-2.004,-8.067,-17.588,-5.88,-7.294,-11.851,-11.017,-0.977,-5.564,-7.701,3.265,-4.506,-9.847,-6.999,-1.984,-3.072,-3.54,-1.2,-5.188,-1.231,-0.437,-8.494,-5.768,-0.315,1.343,-1.841,-7.914,-6.154,-0.051,-1.261,-5.849,-12.461,0.895,-6.948,-10.925,-2.594,-4.232,-0.651,-0.142,-6.805,a
1.821,1.383,-4.435,-10.915,1.241,1.149,0.081,-1.689,-0.183,-3.296,-5.798,-0.183,0.478,-11.363,-10.671,0.783,-6.744,1.587,-7.039,-4.893,-0.234,-0.458,-5.544,-3.418,-1.027,-6.602,-16.123,-4.415,-7.294,-9.41,-8.575,2.441,-3.123,-8.189,5.707,-4.018,-6.429,-3.581,3.876,-3.56,-1.099,-3.153,-5.676,-1.231,0.539,-4.588,-6.744,0.173,-0.61,-0.865,-8.891,-4.69,-2.981,1.668,7.823,-4.161,0.895,-5.483,-8.484,-1.617,-4.72,-0.163,1.322,-3.387,a
4.751,1.872,-3.459,-7.985,3.194,0.173,1.058,-2.177,2.747,-3.296,-3.357,-0.183,1.455,-1.109,-5.3,5.666,1.068,-5.737,0.773,-2.94,-0.722,-0.458,-5.544,-2.93,-0.539,-5.625,-12.705,-3.438,-5.829,-6.968,-6.622,4.883,2.248,-1.353,4.73,-4.995,-0.081,-2.116,7.782,-3.56,0.366,-5.107,-3.723,-0.743,2.492,-1.658,-7.721,1.149,-3.052,-1.841,-8.403,-4.201,-0.539,-1.75,-1.455,-10.997,1.383,-4.506,-6.531,-1.617,-4.232,-0.163,4.252,-0.458,a
6.704,2.848,-1.017,-6.032,4.659,0.173,2.523,-2.665,4.211,-3.784,-1.404,0.305,1.943,2.309,-1.394,10.549,4.486,-7.202,-3.621,-9.288,-1.699,-0.458,-4.567,-3.418,-1.027,-6.114,-8.799,-2.95,-4.364,-5.015,-6.134,5.371,7.131,6.948,1.312,-5.971,0.407,-4.557,7.294,-2.584,0.854,-6.083,-0.793,0.234,3.469,-2.635,-10.162,2.614,-5.493,-2.818,-6.938,-5.666,0.926,-3.215,-2.431,-5.137,2.36,-3.53,-5.554,-1.617,-3.743,-0.163,6.694,0.031,a
6.704,3.337,1.912,-6.032,5.147,1.638,2.523,-3.153,3.235,-4.761,-0.916,0.305,1.455,-2.085,0.071,12.502,3.51,-7.69,-13.387,-10.752,-2.187,-0.458,-3.591,-3.418,-1.027,-7.09,-6.846,-3.927,-3.876,-5.015,-7.111,3.906,9.572,8.413,-0.641,-4.506,-6.429,-7.975,3.876,-2.584,-0.61,-6.083,1.648,1.211,3.469,-7.029,-12.115,4.079,-5.981,-3.794,-5.961,-7.131,3.855,-1.261,1.475,-16.368,2.36,-4.018,-6.042,-2.106,-3.255,-0.651,6.205,-1.923,a
4.262,2.848,3.866,-6.521,3.682,3.103,1.546,-2.665,1.282,-5.249,-2.38,0.305,0.478,-11.363,-0.905,10.549,-0.397,-3.296,-6.551,-4.893,-2.187,-0.458,-3.103,-3.906,-1.516,-9.043,-6.846,-4.903,-3.876,-6.968,-8.575,1.953,7.619,-0.376,-2.594,-2.065,-12.777,-9.44,1.923,-3.56,-2.075,-5.595,1.16,1.211,2.492,-11.912,-13.58,3.591,-4.517,-3.306,-5.961,-7.619,1.902,-0.285,-7.802,-2.207,1.872,-4.995,-7.019,-2.594,-3.255,-0.651,4.252,-4.364,a
0.844,0.895,3.377,-5.056,1.241,2.614,0.57,-2.177,-1.648,-5.249,-4.333,0.305,-0.498,-17.71,-3.835,6.154,2.533,-3.296,1.261,-7.334,-2.187,-0.946,-3.591,-4.395,-2.004,-10.997,-7.823,-6.368,-4.852,-8.921,-9.064,-0.488,2.736,-14.537,-4.547,-0.112,-12.288,-8.464,2.899,-5.514,-2.563,-6.571,-2.258,0.234,0.051,-13.865,-13.092,2.126,-2.563,-2.818,-7.426,-7.131,-1.027,-5.168,-26.357,-5.625,1.383,-5.971,-7.996,-2.594,-3.255,-0.163,1.322,-6.317,a
-0.621,-1.058,0.448,-3.103,-1.2,0.661,-0.895,-1.2,-3.601,-4.761,-4.822,-0.671,-0.987,-17.71,-8.23,0.295,3.51,-5.249,3.215,-7.334,-0.722,-0.946,-4.079,-4.395,-2.492,-11.485,-7.823,-6.856,-5.341,-9.41,-8.575,-2.441,-2.635,-24.79,-6.5,-0.112,-5.941,-6.51,4.852,-6.002,-2.075,-7.06,-5.676,-1.231,-1.414,-12.4,-11.627,0.173,-0.122,-2.818,-7.914,-7.131,1.902,-3.703,-7.314,-3.184,0.407,-6.46,-8.484,-3.082,-3.743,-0.163,-0.631,-6.805,a
0.356,-2.523,-3.947,-2.614,-1.689,-1.292,-0.895,-1.2,-3.601,-3.296,-3.357,-1.16,-0.01,-10.386,-11.159,-3.611,2.045,0.61,-8.016,-0.987,0.743,-1.434,-3.591,-4.883,-1.516,-10.02,-7.334,-6.368,-4.852,-8.921,-7.111,-2.93,-4.588,-24.302,-6.989,-2.065,0.895,-6.51,4.852,-5.025,-1.099,-7.548,-7.141,-1.231,-1.414,-8.494,-9.186,-0.804,1.831,-3.306,-6.938,-6.643,1.414,0.692,-11.22,-10.02,-0.081,-5.483,-7.507,-3.082,-3.255,0.326,0.346,-5.341,a
2.797,-3.011,-5.9,-5.544,-0.224,-1.78,0.081,-0.712,-1.648,-3.296,0.061,-1.16,0.966,-2.085,-11.648,-4.588,-3.326,0.122,-5.086,1.943,1.719,-1.923,-2.614,-4.883,-1.516,-8.067,-6.358,-4.903,-4.364,-6.968,-6.134,-1.953,-3.611,-13.56,-5.035,-4.018,3.337,-7.975,1.434,-3.56,-0.122,-6.571,-5.188,0.234,0.051,-6.541,-6.256,0.173,1.831,-4.283,-4.985,-7.131,-1.027,-0.285,-2.431,-6.114,0.407,-4.995,-6.042,-3.082,-2.279,0.326,2.299,-3.387,a
4.751,-1.546,-4.924,-7.497,2.706,-0.315,1.546,-0.712,1.282,-2.808,3.967,-1.16,1.943,2.797,-8.23,-2.146,4.486,-0.366,8.097,-3.916,1.719,-1.923,-1.638,-4.395,-1.516,-5.625,-5.381,-3.438,-3.876,-5.015,-5.646,0,-0.682,2.065,-1.129,-4.506,0.895,-9.44,-1.984,-2.584,0.854,-5.107,-2.258,1.699,2.004,-7.029,-3.815,2.614,0.854,-4.283,-3.52,-6.643,0.437,-0.773,4.893,0.234,1.383,-4.506,-5.066,-2.594,-1.79,0.326,4.252,-1.923,a
5.239,1.383,-2.97,-6.521,4.659,2.126,2.523,-1.2,3.723,-2.319,6.409,-0.671,2.431,2.309,-2.858,1.272,9.369,1.099,-1.18,-1.475,0.743,-1.923,-1.638,-3.906,-1.516,-5.137,-4.893,-3.438,-3.876,-4.527,-6.622,2.441,1.76,13.784,1.312,-5.483,-2.035,-6.999,-0.519,-2.584,2.319,-4.13,-1.282,1.699,3.469,-8.006,-1.862,4.079,-1.099,-3.306,-2.543,-5.178,1.902,0.692,-13.173,-5.625,1.872,-4.018,-5.066,-2.106,-2.279,-0.163,5.229,-1.434,a
5.239,5.778,-0.041,-0.661,4.171,3.103,2.035,-2.665,4.7,-2.319,6.409,-0.671,1.943,-1.109,1.536,4.69,-4.303,4.028,6.632,1.455,-0.722,-0.946,-2.126,-2.93,-1.516,-5.137,-3.916,-2.95,-3.876,-5.015,-7.599,3.906,3.225,17.202,0.824,-5.971,-4.476,-2.116,4.364,-2.584,3.296,-2.177,-2.258,0.234,3.469,-7.517,-0.885,4.079,-3.052,-1.353,-3.031,-3.713,-0.539,2.645,-29.287,-0.254,1.383,-4.018,-5.554,-1.129,-2.279,-0.651,4.74,-1.434,a
4.751,10.173,0.936,4.71,2.706,3.103,0.57,-4.13,3.235,-1.831,3.967,-0.671,1.455,-5.015,3.001,7.619,-4.303,5.005,-2.645,6.826,-0.722,0.031,-2.126,-0.977,-0.539,-4.649,-3.916,-2.462,-3.387,-5.503,-7.599,3.906,3.713,12.807,-0.641,-6.46,-5.941,3.255,9.247,-2.096,2.319,-1.2,-4.211,-1.719,2.492,-3.611,-0.397,2.614,-3.54,0.6,-3.52,-2.248,-2.004,2.645,-32.216,0.234,0.407,-3.53,-5.554,-0.641,-2.279,-0.651,4.74,-0.946,a
5.239,11.637,0.448,5.686,1.729,2.614,-0.407,-4.618,0.305,-1.343,-1.892,-0.671,0.478,-5.992,2.513,10.549,-2.838,4.517,-10.946,0.966,-0.722,1.007,-1.638,0,0.437,-4.161,-4.893,-1.485,-2.899,-5.992,-6.134,3.418,4.201,5.971,-1.129,-5.971,-5.941,5.697,10.223,-1.119,-0.122,0.753,-3.235,-2.696,1.027,1.272,0.092,1.638,-2.075,1.577,-3.031,-1.272,-1.516,2.157,12.705,0.722,-0.081,-2.553,-5.066,0.336,-1.79,-0.163,4.74,-0.458,a
5.727,9.684,-0.041,0.804,1.729,3.591,0.081,-3.153,-2.625,-0.366,-7.263,-0.183,-0.01,-4.038,1.536,12.014,-4.303,8.423,-12.41,6.826,0.254,1.495,-0.661,0.977,0.926,-2.696,-6.846,-0.997,-2.411,-5.015,-4.181,2.93,5.666,0.6,1.801,-3.53,-3.988,4.72,6.805,0.346,-2.563,2.706,0.183,-0.743,0.051,3.225,0.58,2.126,0.366,2.065,-2.055,-0.783,-2.004,3.621,-8.291,-17.344,-0.081,-1.577,-4.089,0.824,-0.814,0.326,5.229,0.519,a
5.727,4.801,-1.994,-6.521,3.194,5.056,1.058,0.264,-3.601,1.099,-10.681,0.793,-0.01,-1.597,1.536,12.014,0.58,-1.831,-0.203,-9.288,1.231,1.984,-0.173,0.977,0.926,-1.719,-8.311,-0.509,-2.411,-4.038,-3.204,2.441,5.666,-1.841,4.242,-0.112,-0.57,2.279,3.387,1.811,-4.517,4.171,3.601,2.187,0.539,2.736,0.58,3.591,1.831,2.553,-1.567,-1.272,0.437,-1.261,-9.267,-9.532,0.407,-1.577,-3.601,1.312,-0.326,0.814,5.229,0.519,a
4.751,-0.081,-3.947,-9.939,4.171,5.544,2.523,3.682,-3.601,2.563,-10.681,2.258,-0.01,-0.132,2.513,10.061,0.58,-3.784,-6.063,-6.846,0.254,1.984,-0.661,0.488,0.437,-0.743,-9.288,-0.997,-3.387,-4.038,-4.181,2.441,4.69,-2.818,3.754,2.33,1.872,0.326,2.411,2.299,-3.54,4.659,4.578,4.14,1.516,0.295,-0.885,5.056,0.854,3.042,-2.543,-1.272,0.926,-0.773,-1.455,-5.137,0.407,-2.065,-4.578,0.824,-1.302,0.814,4.252,-1.434,a
2.797,-2.523,-5.9,-7.985,3.682,4.567,2.523,5.147,-2.136,4.028,-7.263,2.747,-0.498,-1.109,2.024,6.643,22.552,-9.644,-4.11,-12.705,-0.234,2.472,-2.614,0.488,0.437,-0.743,-9.776,-1.973,-5.341,-4.527,-7.111,1.465,1.272,-4.771,-2.106,2.33,1.872,-0.163,2.899,2.299,-2.075,3.682,1.648,4.14,1.516,-1.17,-2.838,4.567,-1.587,4.018,-4.985,-1.272,7.762,-4.191,-9.267,-10.02,0.895,-3.042,-5.554,0.824,-2.279,0.814,2.787,-3.876,a
0.356,-1.546,-5.9,-2.126,1.729,2.614,1.546,3.682,-1.648,3.54,-3.845,2.258,-0.987,-3.55,-1.394,3.225,-13.092,-1.343,2.726,-4.893,-1.211,2.472,-4.567,0.488,-0.051,-0.743,-10.752,-2.95,-6.317,-5.992,-9.552,-0.488,-2.635,-8.189,-8.942,0.865,0.407,-2.116,3.387,1.322,-1.587,2.218,-3.235,1.699,1.027,-1.17,-5.28,3.103,-4.028,4.506,-7.914,-1.272,-3.957,-2.238,-17.08,-13.926,0.407,-4.506,-7.507,0.824,-3.743,0.326,0.346,-5.829,a
-1.109,0.895,-4.435,2.268,-0.224,1.149,-0.407,0.753,-2.625,1.587,-2.38,0.793,-1.963,-6.968,-7.253,1.272,-0.885,-0.366,-3.621,0.478,-1.211,1.984,-6.521,0,-0.539,-3.672,-11.729,-3.927,-6.805,-7.945,-11.017,-1.953,-4.588,-10.142,-12.36,-1.088,0.895,-5.046,0.946,-0.631,-3.052,0.264,-6.653,-0.743,-0.437,-1.17,-8.698,0.661,-5.005,3.042,-10.356,-1.76,-1.516,-1.75,-8.779,-9.532,-0.57,-5.483,-8.972,0.336,-4.232,0.814,-0.631,-5.341,a
-1.109,1.872,-1.506,2.757,-0.712,1.149,-1.872,-2.665,-4.578,-1.343,-3.357,-1.16,-1.963,-8.921,-13.601,1.76,4.974,-4.761,2.726,-8.311,-0.722,1.007,-7.009,-1.465,-1.027,-8.555,-11.729,-5.391,-6.805,-9.898,-11.505,-2.441,-4.1,-9.165,-9.918,-2.065,0.895,-6.51,-1.984,-3.56,-4.517,-2.177,-7.629,-2.207,-1.902,-3.611,-12.115,-0.315,-4.028,0.6,-11.332,-3.225,4.344,0.203,-2.92,-4.161,-1.058,-6.46,-9.949,-1.129,-4.232,0.326,-0.631,-3.387,a
-0.132,1.872,-0.041,0.315,0.264,1.149,-2.36,-4.13,-5.066,-3.784,-4.822,-2.136,-1.963,-8.921,-16.042,3.713,-5.768,1.099,-13.387,-0.498,0.254,-0.458,-6.521,-4.395,-2.492,-13.438,-10.264,-7.345,-7.294,-11.363,-11.017,-0.977,-0.682,-5.259,-3.082,-2.065,-2.035,-5.534,-1.984,-5.514,-4.028,-4.618,-6.653,-2.207,-2.391,-8.494,-15.533,0.173,-1.099,-2.33,-10.356,-6.154,0.437,3.133,-18.056,-7.579,-1.546,-7.436,-10.925,-3.082,-4.232,-0.163,0.346,-1.434,a
2.309,1.383,-0.041,-2.126,2.706,2.126,-1.383,-4.13,-3.601,-4.272,-4.333,-2.625,-0.498,-5.992,-14.577,7.131,-5.28,2.563,-16.317,-4.405,1.231,-2.411,-4.567,-6.348,-2.981,-15.391,-7.823,-8.321,-7.782,-11.851,-11.017,1.953,3.225,1.088,3.265,-1.577,-9.847,-3.581,1.923,-5.514,-1.099,-6.083,-4.7,-1.231,-0.926,-13.377,-16.022,1.638,1.343,-4.283,-6.938,-9.084,-3.957,0.692,-14.15,-8.067,-0.57,-8.413,-11.414,-4.547,-4.232,-0.163,2.787,-1.434,a
4.751,1.872,-2.482,-1.149,4.659,2.126,0.57,-2.177,0.305,-2.808,-0.916,-2.136,1.455,-2.085,-10.183,10.549,2.533,0.122,-13.387,-0.987,1.231,-2.899,-3.103,-7.812,-2.981,-13.926,-5.87,-8.321,-7.782,-11.363,-11.993,4.395,4.201,5.971,4.242,-2.065,-17.171,-2.116,6.805,-4.049,2.319,-5.107,-2.747,-0.254,1.516,-14.353,-14.069,3.103,2.319,-5.259,-3.52,-10.061,0.926,-0.285,-15.615,-13.926,-0.081,-8.413,-11.414,-5.035,-3.743,-0.163,4.74,-3.876,a
6.704,4.801,-3.947,3.245,5.636,2.126,2.523,0.264,4.211,-0.854,2.014,-0.671,2.92,2.309,-5.3,11.525,8.881,-2.319,-8.504,-5.381,0.743,-2.411,-2.126,-6.836,-2.004,-9.043,-5.87,-6.856,-7.294,-10.386,-11.993,4.883,2.248,8.901,1.801,-2.065,-16.195,-2.116,9.735,-1.119,3.784,-3.153,-0.305,1.211,3.957,-9.959,-9.186,4.567,1.343,-4.283,-2.055,-9.572,4.344,0.203,-14.638,-12.95,1.383,-7.436,-10.925,-4.547,-3.255,-0.651,6.205,-7.782,a
6.704,7.243,-3.947,8.616,6.124,3.591,3.988,2.218,5.676,1.099,2.502,1.282,3.408,3.286,-2.37,9.084,-1.373,-0.854,6.144,-6.846,-0.722,-1.434,-3.591,-4.883,-2.004,-5.625,-8.311,-5.88,-7.294,-9.898,-11.993,3.418,-1.17,8.901,-1.617,-1.577,-6.917,-0.651,8.759,1.322,2.808,-0.224,0.671,3.164,5.422,-4.1,-3.815,6.032,-1.587,-2.33,-4.008,-7.131,-0.051,-0.285,-13.662,-15.391,2.36,-6.948,-10.437,-3.082,-3.743,-0.651,6.205,-10.223,a
6.704,8.219,-1.994,12.522,6.612,6.521,4.964,4.171,5.188,2.563,-1.404,3.235,2.92,0.844,-1.394,5.178,2.045,1.099,1.75,4.384,-2.675,-0.458,-5.544,-3.418,-2.981,-5.625,-11.729,-6.368,-8.27,-9.898,-11.993,0.977,-2.635,6.46,-4.059,-0.112,4.801,2.279,7.294,2.299,0.366,0.753,-0.793,5.117,5.91,-0.682,-1.373,6.521,-5.005,-0.865,-7.914,-5.178,-0.051,-0.773,-39.052,-6.602,3.337,-7.436,-10.437,-3.082,-5.208,-1.139,6.205,-9.735,a
6.704,8.219,0.448,12.034,6.612,8.474,5.452,5.636,3.235,3.54,-5.31,4.211,2.431,-3.55,-1.394,2.248,-1.862,5.493,0.285,0.966,-3.652,-0.458,-8.474,-3.418,-4.445,-8.067,-14.659,-8.321,-9.247,-10.874,-12.482,0.488,0.295,4.506,-4.059,2.33,8.708,5.697,8.759,2.299,-1.587,0.264,-5.188,6.582,5.422,-1.658,-2.35,7.985,-6.47,0.112,-11.82,-4.69,-0.539,2.157,-1.943,5.605,3.825,-8.901,-11.414,-3.571,-6.185,-1.628,6.694,-6.317,a
7.68,8.708,1.912,8.128,7.1,8.962,5.452,6.124,1.77,4.028,-6.775,4.7,1.943,-6.968,-2.37,3.225,-0.397,3.052,1.75,-1.963,-4.14,-0.946,-10.427,-4.395,-6.399,-10.508,-15.635,-10.274,-11.2,-12.339,-14.435,2.93,6.154,3.53,-2.106,3.306,4.313,4.72,11.688,1.322,-1.099,-0.224,-8.606,6.582,4.445,-5.076,-4.791,8.474,-6.47,-0.376,-13.774,-5.666,-0.051,1.668,4.893,8.535,3.825,-10.854,-13.367,-5.035,-8.138,-2.116,7.67,-1.923,a
9.145,10.173,2.889,1.292,7.589,7.497,4.964,6.124,1.282,4.517,-2.869,3.723,1.943,-6.968,-2.37,9.572,0.092,-1.831,-1.18,2.92,-3.652,-1.923,-9.939,-5.859,-5.91,-10.508,-15.147,-9.786,-12.177,-13.316,-14.923,7.324,12.014,3.042,1.312,3.794,-2.523,0.326,12.665,0.346,0.366,0.264,-8.606,5.605,4.445,-7.029,-6.744,7.985,-4.517,-0.865,-12.797,-6.643,-0.539,-0.285,20.518,5.605,3.825,-10.854,-13.855,-5.524,-8.138,-2.116,9.623,2.96,a
10.122,11.149,2.889,-5.544,8.077,5.544,4.476,5.147,2.258,4.517,2.991,2.258,1.943,-3.55,-2.858,17.873,5.463,-0.366,11.027,-2.452,-2.187,-1.923,-7.985,-4.883,-3.957,-7.579,-12.217,-6.368,-10.712,-11.851,-12.97,11.719,14.455,3.042,5.219,4.283,-4.476,-5.046,9.247,-0.142,1.343,1.241,-3.235,4.14,3.957,-4.588,-4.791,7.497,-2.563,-0.376,-9.379,-6.154,1.414,-0.285,12.705,7.558,3.337,-8.901,-11.414,-4.547,-6.673,-1.628,10.6,6.378,a
10.122,10.661,3.866,-7.497,8.077,4.567,3.499,3.682,2.747,3.54,5.92,1.282,0.966,1.333,-2.37,23.244,3.998,3.54,10.539,1.943,-0.722,-0.458,-3.591,-1.465,-0.539,-2.696,-7.823,-0.997,-6.805,-7.456,-7.111,13.672,12.014,3.042,7.66,3.794,-2.035,-5.534,4.364,-0.142,0.854,1.729,4.089,3.652,3.957,-0.193,0.092,7.009,-0.61,1.088,-4.008,-3.225,0.926,1.668,0.987,7.558,2.36,-4.506,-6.531,-1.129,-3.743,-0.651,10.6,6.866,a
8.169,7.731,4.354,-2.614,7.589,4.567,3.011,2.706,2.747,2.563,3.479,0.793,0.478,3.774,-1.394,23.733,-1.373,8.911,-5.086,6.337,0.743,1.984,0.804,2.93,2.879,1.699,-1.475,4.374,-0.946,-0.132,0.702,12.207,7.619,3.53,7.172,3.306,0.407,-0.651,1.923,-0.142,-0.61,2.218,8.484,3.164,3.469,3.225,3.51,6.032,0.854,3.53,0.875,1.658,-3.469,1.668,7.334,-0.254,1.383,1.353,1.282,2.777,0.651,1.302,8.158,5.89,a
5.727,3.825,2.889,6.663,5.636,4.079,1.546,0.753,1.282,2.075,-2.869,0.793,-0.498,1.821,-0.905,17.385,-3.815,2.563,0.285,3.896,1.719,3.448,4.222,5.859,4.344,4.628,4.873,7.792,4.913,7.68,8.514,8.301,4.201,4.995,3.754,1.841,-0.57,5.697,3.387,-0.142,-1.587,2.218,6.042,2.675,2.004,3.225,3.998,4.567,1.831,5.483,4.293,5.564,-0.539,2.645,-2.92,12.441,0.407,5.747,9.094,5.219,4.069,2.279,5.229,3.448,a
2.797,1.383,0.936,13.499,3.194,4.079,0.57,0.264,-1.16,1.587,-7.751,0.793,-0.987,-3.55,-0.905,6.643,2.045,2.075,2.726,-0.01,2.207,3.937,5.686,6.836,4.832,5.605,9.267,9.257,7.843,13.54,13.397,3.418,2.736,6.46,-1.129,-0.6,-2.523,7.65,5.829,-0.631,-2.075,2.706,-0.305,1.699,0.539,0.783,1.068,3.103,1.831,5.483,5.269,6.541,1.414,1.18,-4.384,-3.184,-0.081,8.189,14.465,6.195,5.534,2.279,2.787,0.519,a
1.821,1.383,-2.482,13.011,0.264,3.103,-0.407,-0.224,-3.113,2.075,-8.24,0.793,-0.987,-7.945,-1.882,-4.1,4.486,4.028,4.191,4.384,2.207,3.448,5.198,5.859,3.855,5.605,10.732,8.769,8.331,15.493,13.885,-0.488,0.783,6.948,-4.547,-1.577,-1.058,5.208,4.364,-0.142,-1.587,3.682,-5.188,0.234,-0.926,-0.682,-2.35,1.149,1.343,4.506,3.805,5.564,0.437,-0.285,-16.103,-10.997,-0.57,8.677,15.93,5.219,5.046,2.279,1.322,-1.923,a
0.844,2.36,-4.924,6.175,-1.689,2.126,-1.872,0.264,-5.066,3.052,-5.31,0.305,-1.475,-6.968,-2.37,-9.959,5.951,-0.854,2.238,-2.94,2.207,2.472,3.245,4.395,3.367,4.628,7.802,6.327,6.378,13.54,10.956,-3.418,-1.658,5.483,-5.524,0.376,2.36,1.79,0.946,1.811,-2.075,4.659,-4.7,-1.231,-2.391,0.783,-2.838,-0.315,1.343,3.53,2.34,4.1,1.902,-2.238,-16.103,-2.207,-1.058,6.724,13.489,4.242,3.581,1.79,0.834,-3.387,a
0.844,2.848,-5.412,-2.126,-2.177,2.126,-2.36,1.241,-5.554,4.028,-2.869,0.305,-1.963,-0.132,-1.882,-8.982,10.345,-2.319,-3.621,-2.94,1.719,2.472,1.78,3.418,2.391,3.652,2.431,4.374,3.448,8.657,5.585,-3.418,-4.588,2.553,-3.571,4.771,4.313,3.255,-0.519,3.764,-3.052,5.636,-0.305,-1.231,-2.879,4.201,0.092,-0.315,1.831,3.53,0.875,3.611,5.32,0.203,7.823,-5.137,-0.57,3.794,8.606,3.265,2.116,1.79,0.834,-4.364,a
1.333,2.36,-3.947,-5.544,-1.2,3.103,-1.872,2.706,-4.578,5.005,-2.869,0.793,-1.963,8.657,0.559,-1.17,16.693,-2.808,-30.477,-3.916,1.231,1.984,0.804,2.93,1.902,2.187,-2.452,1.933,1.007,3.774,-0.275,-1.953,-5.564,-1.353,-2.106,8.677,2.848,7.161,1.923,3.764,-3.052,5.147,3.113,0.234,-2.391,6.643,2.045,0.661,1.343,4.506,0.387,3.123,5.809,-0.773,-14.638,0.234,-0.57,1.353,3.723,2.289,1.139,1.302,0.834,-4.364,a
1.333,0.895,-0.529,-1.638,0.753,4.079,-0.407,4.171,-1.648,5.493,-4.822,1.282,-0.987,14.516,2.024,8.108,-3.326,1.587,4.679,-2.452,1.231,1.984,0.804,2.441,0.926,1.211,-4.893,-0.02,-0.458,0.844,-4.181,0.488,-2.635,-4.283,-1.617,8.677,-0.081,8.138,6.317,1.811,-2.563,3.682,2.625,2.187,-0.437,6.643,0.58,2.614,0.854,4.506,-0.102,2.635,-1.027,-0.773,0.987,-0.254,-0.57,-1.088,-0.183,0.824,0.651,1.302,1.322,-3.876,a
2.309,0.407,2.889,4.222,3.682,4.079,1.546,4.171,1.77,5.005,-5.31,1.282,0.478,12.563,1.048,13.967,8.392,-0.854,3.215,-3.916,1.231,1.007,0.804,0.977,-0.539,-0.254,-4.893,-0.997,-1.923,-1.109,-5.157,2.93,3.713,-5.259,-1.129,5.259,-2.035,3.743,7.294,-1.607,0.366,1.729,-1.77,3.164,1.516,3.225,-3.326,4.079,1.343,3.042,-1.078,0.682,3.855,-0.285,-20.498,-5.137,0.407,-2.553,-2.136,-0.153,0.163,0.814,1.811,-2.899,a
3.286,0.895,4.842,4.71,6.124,3.103,3.011,2.706,4.7,2.563,-2.38,0.793,2.431,4.751,-1.882,13.967,-5.28,2.075,1.75,-0.498,1.719,0.031,-0.173,-0.977,-1.027,-2.207,-5.381,-1.973,-2.899,-2.085,-4.669,3.906,8.596,-4.283,-0.153,-0.6,-3.499,-4.069,2.899,-3.56,2.808,-0.712,-6.653,2.187,3.957,-0.682,-6.744,5.056,2.319,0.6,-2.543,-0.783,-0.539,1.668,-6.337,-8.067,1.383,-3.042,-2.625,-1.617,-0.814,0.326,3.276,-1.434,a
4.751,1.383,5.33,-1.638,6.612,2.614,3.011,0.753,5.188,-0.366,1.526,-0.183,3.408,-3.55,-4.812,9.572,-3.326,3.052,-8.016,-1.475,2.207,-1.434,-1.638,-2.441,-1.516,-4.649,-6.358,-1.973,-4.364,-2.574,-3.204,3.418,9.572,-3.306,1.312,-4.506,-3.988,-7.487,-1.495,-3.072,3.296,-2.177,-9.583,1.211,4.445,-3.611,-7.233,5.056,3.784,-1.841,-4.985,-2.736,-1.516,1.668,-4.384,-3.672,1.383,-3.042,-2.136,-2.106,-2.279,-0.163,4.252,0.519,a
5.239,3.337,4.354,-7.985,6.124,3.103,2.523,-0.224,3.723,-1.831,4.456,-0.671,2.92,-6.968,-5.3,5.666,3.021,6.47,-2.157,2.431,1.719,-1.923,-3.103,-2.93,-1.516,-7.09,-7.823,-2.462,-5.341,-3.062,-2.228,3.418,6.643,-0.865,2.777,-4.506,-4.964,-4.557,-0.519,-1.607,2.319,-2.665,-7.629,1.211,3.957,-4.588,-4.303,4.567,4.272,-2.33,-6.449,-3.713,0.926,1.18,-18.545,-6.114,1.383,-3.53,-2.625,-2.106,-3.255,-0.651,5.229,2.472,a
6.215,5.29,4.354,-6.521,5.636,4.079,2.035,0.264,1.282,-0.854,4.944,-0.183,1.943,-4.527,-2.858,7.131,-0.397,1.587,4.191,-3.916,0.743,-1.434,-4.567,-2.93,-2.004,-7.579,-7.334,-2.95,-5.341,-4.038,-3.693,4.883,4.201,1.577,2.777,-2.065,-4.476,2.279,5.829,0.346,0.854,-1.689,-2.747,2.187,2.981,-4.588,-1.373,4.567,2.808,-1.353,-6.938,-3.713,1.414,1.18,-28.31,3.652,1.383,-3.53,-3.601,-2.106,-4.232,-0.651,6.205,3.448,a
7.192,7.731,4.354,4.222,5.636,6.032,2.035,2.218,0.305,1.587,3.967,0.793,0.966,-0.621,-0.417,13.479,4.486,-9.644,-7.039,-6.846,-0.722,-0.946,-5.056,-2.441,-2.492,-5.625,-5.87,-4.415,-5.829,-5.015,-6.622,7.324,4.69,4.995,3.265,1.353,-1.546,6.673,12.177,1.322,0.366,0.753,4.089,3.164,2.492,-5.076,-0.885,5.056,-1.099,0.112,-6.449,-4.201,1.902,-2.726,0.01,-10.508,1.383,-4.995,-6.042,-2.594,-4.232,-1.139,7.182,2.96,a
8.169,10.173,3.866,18.382,5.636,7.497,3.011,3.682,0.793,4.517,3.967,2.747,0.966,-0.132,0.071,19.826,-4.791,-3.784,0.773,-6.358,-2.187,-0.946,-5.056,-2.93,-3.957,-4.161,-4.405,-5.88,-6.317,-5.992,-10.04,9.277,8.108,7.924,4.242,2.818,2.848,6.185,12.665,1.811,1.343,2.706,7.507,4.14,2.981,-5.076,-3.815,6.032,-4.028,1.088,-5.961,-4.201,-1.516,-1.261,-28.798,-7.09,2.36,-6.46,-7.996,-3.571,-4.72,-1.628,7.67,0.519,a
8.169,10.173,0.936,24.729,6.124,7.497,3.988,4.171,2.747,5.981,3.967,3.235,1.943,-3.062,-0.905,22.268,-2.35,-3.296,-5.086,-8.799,-2.675,-1.434,-4.567,-3.418,-4.934,-3.672,-4.893,-6.856,-7.294,-7.456,-12.482,9.766,9.572,8.413,5.707,3.306,5.778,2.767,8.27,1.322,2.319,3.682,7.019,3.652,3.957,-4.1,-6.744,6.521,-5.493,0.6,-4.985,-4.69,-0.539,-0.773,-8.291,-4.161,2.848,-7.436,-8.972,-4.547,-4.72,-2.116,7.67,-2.411,a
7.68,8.708,-2.97,17.893,5.636,6.032,3.499,2.706,3.235,5.005,2.991,2.258,1.943,-5.992,-2.858,19.338,0.58,-2.808,-1.668,-1.475,-2.187,-1.923,-4.079,-3.906,-4.445,-4.649,-6.846,-6.856,-7.782,-7.945,-11.993,7.324,7.131,4.995,6.195,2.818,5.29,1.302,4.852,-0.142,2.319,2.218,2.625,2.675,3.957,-3.611,-7.233,6.032,-4.028,-0.376,-4.008,-4.69,0.926,-1.261,-24.404,-3.672,2.848,-7.924,-8.972,-5.524,-4.72,-2.116,7.182,-3.876,a
6.704,5.778,-5.412,3.245,5.147,4.079,3.011,1.241,3.235,2.563,-0.916,0.793,1.943,-6.48,-2.858,14.455,-3.326,3.052,-1.668,-0.987,-1.211,-2.411,-3.591,-4.395,-3.957,-6.114,-9.288,-6.856,-7.782,-7.945,-9.552,4.883,3.713,0.112,4.73,2.33,3.337,0.814,6.805,-3.072,0.854,-1.2,-2.747,1.699,3.957,-2.146,-3.815,5.056,-1.099,-1.841,-3.52,-4.69,-2.492,1.18,-1.455,-14.903,2.36,-7.436,-7.507,-5.035,-4.72,-1.628,6.694,-2.899,a
6.704,4.801,-3.459,-8.474,4.659,2.614,2.523,-0.224,2.258,-0.366,-6.287,-0.671,1.943,-2.574,-1.394,11.037,-0.397,-1.343,-6.551,-2.452,-0.234,-2.899,-3.103,-4.395,-3.469,-7.09,-10.264,-6.368,-7.294,-7.456,-7.111,3.418,2.736,-2.33,1.312,2.33,1.383,0.326,10.223,-5.025,-0.61,-4.13,-4.211,1.211,3.469,-1.658,1.068,5.056,1.343,-2.818,-3.031,-4.69,0.437,0.203,-1.943,-10.997,1.872,-6.948,-6.042,-5.035,-4.232,-1.139,6.694,0.519,a
7.192,5.29,2.401,-9.45,5.636,2.614,2.035,-0.224,2.258,-1.343,-10.681,-1.16,1.455,1.821,1.536,11.525,0.092,1.099,2.238,-2.452,-0.234,-2.899,-3.591,-4.883,-3.957,-7.09,-9.288,-6.856,-7.294,-7.456,-7.111,4.395,5.666,2.065,-1.617,1.353,0.895,-1.628,9.735,-5.025,-1.099,-5.595,-1.282,1.699,3.957,-2.635,4.486,5.056,0.854,-3.306,-4.008,-5.666,0.926,0.692,-1.455,-7.579,0.895,-7.436,-6.042,-5.035,-4.232,-1.139,7.182,3.937,a
8.169,7.731,8.748,-2.126,6.612,4.567,2.523,0.264,3.235,0.122,-9.705,-0.671,1.455,3.286,1.536,14.455,-4.303,4.517,-3.133,1.943,-1.699,-2.899,-5.056,-5.371,-5.422,-5.137,-8.799,-7.345,-8.27,-7.456,-8.087,7.324,10.061,12.319,-1.129,-0.112,1.383,-3.092,4.852,-2.584,0.366,-4.13,2.625,2.675,4.445,-4.1,3.998,6.032,-2.075,-3.794,-5.961,-6.154,-3.957,0.692,-3.896,-10.508,1.383,-8.413,-7.019,-5.524,-5.208,-1.628,8.158,5.402,a
8.657,9.196,12.166,5.686,7.1,6.032,3.499,0.753,3.723,2.075,-4.822,0.305,1.455,0.356,0.071,16.408,12.299,-4.272,-2.645,-11.241,-3.164,-2.899,-7.009,-5.859,-6.399,-4.649,-9.776,-8.321,-9.735,-7.945,-10.04,9.277,11.525,20.62,1.312,-0.6,0.407,-1.139,0.458,-0.142,0.854,-0.224,4.578,3.164,4.934,-4.1,1.068,6.521,-5.493,-3.306,-8.891,-6.154,3.855,-3.703,-31.728,-8.067,1.383,-9.878,-8.484,-6.012,-6.673,-2.116,7.67,4.913,a
7.192,8.219,9.725,8.128,6.124,7.009,3.011,2.218,3.723,3.54,0.549,0.793,0.966,-2.574,-1.882,15.92,23.041,-4.272,-8.016,-11.729,-3.652,-2.411,-8.474,-4.883,-6.399,-4.649,-10.264,-8.321,-10.712,-8.921,-11.505,9.277,8.108,20.62,3.754,0.865,-1.546,4.232,0.458,0.834,0.366,2.706,1.648,3.164,4.445,-3.123,-2.35,6.032,-6.47,-1.841,-11.332,-5.178,11.668,-3.215,-4.384,-9.043,1.872,-10.854,-9.46,-6.5,-8.138,-2.116,6.205,2.472,a
4.751,5.778,4.842,5.198,4.171,5.544,2.035,3.194,2.258,4.028,2.502,1.282,0.478,-3.55,-2.858,14.943,-25.299,2.075,-1.18,-0.987,-3.164,-1.923,-8.474,-4.395,-5.422,-6.114,-9.288,-8.321,-10.223,-9.41,-11.993,7.324,1.76,10.366,3.754,3.306,-3.988,9.603,4.852,0.346,-1.099,4.171,-4.211,2.675,2.492,-0.682,-5.28,4.079,-5.005,-0.376,-11.332,-4.201,-6.887,3.621,4.405,4.628,1.383,-10.366,-9.949,-6.012,-8.138,-2.116,4.74,0.519,a
2.797,2.36,-0.041,2.757,2.706,2.614,0.57,3.682,0.305,4.028,0.061,0.793,-0.01,-0.132,-1.882,15.432,1.068,1.587,12.004,-4.405,-1.699,-1.434,-7.009,-3.906,-4.445,-7.579,-6.846,-8.321,-9.247,-9.898,-11.505,5.859,-2.146,-4.283,1.801,4.771,-4.964,9.603,6.805,-0.631,-1.587,3.194,-8.118,2.187,0.539,0.783,-6.744,2.614,-1.587,0.6,-9.379,-3.713,-1.027,-1.75,-11.22,-15.391,-0.081,-9.389,-10.437,-5.524,-6.673,-1.628,3.276,-0.458,a
2.309,0.895,-1.506,4.222,1.729,-0.315,-0.895,3.194,-0.671,3.54,-4.333,-0.183,-0.01,4.262,-0.905,17.385,-2.838,2.563,-3.133,-2.94,-0.234,-1.434,-5.056,-4.395,-3.957,-8.555,-5.381,-8.809,-7.782,-10.386,-11.993,5.371,-2.146,-14.048,-0.153,4.283,-3.499,4.232,4.364,-2.096,-0.61,1.241,-9.094,1.211,-0.437,-0.193,-8.698,1.149,0.366,-0.376,-6.938,-5.178,-0.051,0.692,-8.291,-11.973,-1.058,-9.389,-10.925,-5.524,-5.208,-0.651,2.787,0.519,a
2.797,1.383,0.448,8.616,2.218,-1.78,-1.872,1.729,-0.183,2.075,-6.775,-1.648,0.478,5.239,-2.858,19.338,2.045,-8.667,-2.645,-10.752,0.743,-2.411,-3.591,-5.859,-4.445,-9.043,-5.381,-9.298,-7.782,-10.874,-12.97,5.859,1.272,-12.583,-0.641,1.353,-0.081,-1.628,0.946,-2.584,1.343,-1.2,-6.653,0.234,-0.437,-3.123,-10.162,0.661,0.854,-2.33,-5.473,-7.619,2.391,-2.726,-2.92,-0.254,-1.546,-9.389,-11.414,-6.012,-3.743,-0.651,2.299,1.495,a
2.797,2.848,2.889,10.569,3.194,-0.804,-1.872,-0.712,0.793,0.61,-5.31,-2.136,0.966,1.821,-6.765,18.361,5.463,-1.343,6.632,-4.405,0.743,-3.387,-3.591,-7.324,-4.445,-8.555,-7.334,-9.298,-8.27,-10.386,-13.458,6.348,6.643,-2.818,-0.153,-2.553,5.778,-3.092,1.923,-3.072,2.319,-2.177,-2.747,-1.719,0.539,-6.053,-10.162,1.149,0.366,-4.283,-5.473,-9.084,0.926,-2.238,-12.685,-13.926,-1.546,-9.389,-11.414,-6.5,-3.743,-1.139,2.787,1.495,a
3.774,3.825,4.354,8.128,4.171,2.614,-1.383,-2.665,1.77,-0.366,0.549,-2.136,0.966,-3.55,-10.183,15.92,5.463,-2.808,5.656,-2.452,0.254,-3.387,-4.079,-7.812,-3.957,-8.067,-7.334,-8.321,-8.759,-9.41,-12.97,6.836,11.525,7.924,2.289,-4.506,10.661,0.326,7.294,-2.584,1.343,-2.665,1.16,-2.696,1.027,-7.517,-8.209,2.126,-0.122,-3.794,-5.473,-8.596,1.902,-2.238,-13.173,-13.438,-1.058,-9.389,-9.949,-6.5,-4.232,-1.139,3.764,1.495,a
5.727,4.801,5.819,4.222,4.171,5.544,-0.895,-3.153,1.77,-0.854,7.874,-1.648,0.478,-6.48,-8.23,13.479,-2.35,-1.343,-8.993,-4.893,-0.722,-2.899,-4.567,-6.836,-3.469,-8.067,-4.893,-6.856,-8.27,-8.433,-10.529,7.324,14.455,11.342,4.73,-3.042,13.102,4.72,11.2,-2.096,-0.122,-2.665,5.066,-2.696,1.027,-7.517,-3.326,3.103,-0.122,-2.33,-4.985,-6.643,0.437,-0.285,-31.24,-11.485,-0.57,-8.413,-8.484,-6.012,-4.72,-1.139,5.229,1.984,a
7.68,5.778,7.772,3.245,4.659,6.032,-0.407,-2.177,1.77,-0.366,13.733,-1.16,-0.01,-5.503,-0.905,13.479,-0.397,-2.808,4.679,-2.452,-1.211,-2.411,-4.567,-5.371,-3.469,-7.579,-0.987,-6.368,-7.294,-7.456,-8.087,8.301,14.943,5.971,6.195,-0.112,10.661,4.72,8.27,-1.607,-0.61,-2.665,7.019,-1.719,1.516,-6.541,2.045,3.591,-0.122,-1.353,-4.008,-4.201,0.437,-1.75,-20.009,-11.973,-0.57,-7.436,-7.019,-5.035,-4.72,-1.139,7.67,3.448,a
9.145,5.778,10.213,6.175,4.659,4.079,-0.407,-0.224,2.258,1.099,14.709,-0.671,0.478,-3.062,7.884,16.408,3.998,-3.784,4.191,-8.799,-1.211,-1.923,-3.591,-4.883,-3.957,-7.579,0.478,-7.345,-6.317,-7.456,-7.111,9.766,12.014,-3.306,7.172,2.818,6.266,0.326,1.434,-2.584,0.854,-2.665,6.042,-0.254,1.516,-5.564,5.463,3.103,-0.61,-0.865,-3.031,-4.201,2.879,-1.75,-23.427,-3.672,-0.57,-7.436,-6.531,-5.524,-4.232,-1.139,8.647,5.402,a
9.145,5.29,9.725,7.151,4.171,1.149,-0.407,0.753,3.235,2.563,8.362,-0.671,0.478,-3.062,12.278,20.315,1.556,0.61,-9.481,-1.963,-0.722,-2.411,-3.103,-5.859,-5.422,-7.579,-2.94,-9.298,-6.805,-9.41,-9.552,10.254,7.619,-9.654,6.683,3.794,2.36,-3.581,-1.495,-3.56,2.319,-2.177,1.648,0.234,1.516,-5.076,5.951,2.126,-0.61,-2.818,-2.543,-6.154,0.926,-0.285,2.452,-6.114,-0.57,-8.901,-8.484,-6.5,-4.232,-1.628,8.158,5.89,a
7.192,4.313,5.819,3.245,3.682,-0.315,-0.407,1.241,3.235,2.075,-1.892,-1.16,0.966,-5.015,9.349,22.756,4.974,-2.808,3.703,-7.334,-0.234,-3.387,-3.591,-6.836,-5.422,-7.09,-9.288,-10.274,-8.759,-10.874,-12.482,10.254,2.736,-7.212,5.219,3.306,0.895,-2.116,2.899,-4.049,2.319,-1.2,-3.723,-0.254,1.516,-4.1,3.998,1.149,-0.122,-4.283,-3.52,-8.108,1.902,-2.238,6.846,2.675,-1.058,-10.366,-10.437,-7.477,-5.208,-1.628,6.694,5.402,a
5.239,3.337,-0.041,-6.032,3.194,1.149,-0.895,0.264,2.258,1.099,-12.146,-2.136,1.455,-5.992,1.536,21.779,7.904,-2.808,9.562,-5.87,0.254,-3.876,-4.079,-7.324,-4.934,-6.602,-14.17,-9.298,-10.223,-11.851,-14.435,9.277,0.783,0.6,3.265,2.818,0.895,2.767,9.735,-3.072,0.366,-0.712,-5.676,-0.743,1.516,-2.146,1.068,1.638,0.854,-4.283,-5.473,-8.108,2.391,-2.726,-2.431,-5.137,-1.058,-11.342,-11.414,-6.989,-5.697,-1.628,5.229,3.937,a
4.751,2.848,-3.947,-11.892,4.171,4.567,-0.407,0.264,0.305,0.122,-15.564,-2.136,0.966,-3.062,-3.835,20.315,2.533,-3.784,2.726,-5.381,0.254,-3.387,-4.567,-6.348,-3.469,-6.602,-14.659,-6.856,-9.735,-9.41,-13.458,9.277,3.225,8.901,3.265,3.306,0.895,6.673,12.177,-1.607,-1.099,-0.224,-2.747,0.234,1.516,-0.682,-0.885,3.103,0.854,-3.306,-5.961,-6.643,3.855,-1.261,3.428,-2.207,-1.058,-9.389,-9.949,-6.012,-5.697,-1.139,5.229,3.448,a
6.704,4.801,-2.97,-8.474,5.636,7.009,0.57,1.241,-0.183,0.61,-10.193,-1.648,0.478,3.774,-3.347,19.338,12.787,-1.343,-1.18,-4.893,0.254,-2.411,-4.567,-4.395,-2.004,-7.09,-10.752,-4.415,-7.294,-6.48,-9.064,10.254,8.108,10.854,4.242,4.283,0.895,5.208,9.735,-1.119,-1.099,-1.2,3.601,1.699,2.004,-0.193,-0.885,5.056,0.366,-1.841,-5.473,-4.201,5.809,-1.261,-1.943,-13.438,-0.57,-6.948,-6.042,-4.059,-4.232,-0.651,6.694,4.425,a
8.657,6.266,3.377,3.733,7.1,7.497,1.546,3.194,1.282,2.075,0.061,-0.671,0.478,8.657,2.513,19.826,-3.815,2.563,-4.11,-0.01,0.743,-1.923,-3.103,-3.418,-1.516,-6.602,-5.381,-2.95,-4.364,-2.574,-3.693,11.719,12.99,6.46,6.683,4.771,2.36,0.814,5.829,-1.607,1.343,-2.177,8.972,3.164,2.492,-2.146,-0.885,6.521,-0.61,-1.353,-3.52,-3.225,-2.004,-0.285,-2.431,-1.231,-0.57,-4.018,-2.136,-3.082,-2.767,-0.163,8.158,6.378,a
9.633,6.755,11.19,16.429,7.589,5.544,2.523,4.171,4.7,3.54,8.362,-0.671,1.455,8.169,7.395,20.803,-0.885,3.052,-0.203,1.943,1.231,-1.923,-1.638,-3.418,-1.516,-4.649,-0.987,-2.462,-1.923,-1.109,-0.763,12.207,14.943,0.112,7.66,3.794,5.29,-1.628,5.341,-3.072,4.272,-2.665,8.972,3.164,3.469,-5.564,-1.862,6.521,-0.122,-1.841,-1.567,-3.225,0.926,0.203,-16.103,3.652,-0.57,-2.553,-0.671,-2.594,-1.302,-0.163,9.135,7.843,a
9.145,5.778,15.584,21.311,6.612,3.591,2.035,3.194,6.653,3.54,10.315,-1.16,2.431,0.844,6.907,20.803,0.58,4.028,3.215,3.408,1.719,-2.411,-0.173,-3.906,-2.004,-3.184,1.455,-3.438,-0.946,-1.109,-1.251,11.23,14.455,-1.353,6.683,0.865,7.731,-0.163,7.294,-3.56,4.761,-2.177,5.066,1.699,3.957,-8.494,-2.35,5.544,2.319,-2.818,-0.59,-4.69,1.902,2.645,-18.056,7.07,-0.57,-3.042,-1.16,-3.571,-0.326,-0.651,8.647,7.355,a
7.68,4.801,14.608,15.94,4.659,2.614,1.546,0.753,6.653,2.563,5.432,-1.648,2.92,-7.456,0.071,19.338,2.533,6.47,-0.692,2.92,2.696,-2.899,0.804,-4.883,-1.516,-1.719,2.431,-3.927,-1.923,-3.062,-3.693,9.766,12.014,3.53,4.242,-2.065,7.243,2.279,7.782,-3.072,2.808,-1.689,0.183,-0.254,3.469,-8.494,-3.815,4.079,4.761,-3.306,-0.102,-4.69,-0.051,1.668,9.776,-2.207,-0.57,-3.53,-2.625,-4.059,-0.326,-0.651,7.182,6.378,a
7.192,5.29,9.725,6.663,3.682,4.079,1.058,-0.224,5.188,2.075,0.061,-1.648,2.431,-11.851,-5.788,17.873,4.486,-0.854,6.632,-0.01,2.696,-2.411,0.804,-3.906,-1.516,-1.231,3.408,-3.438,-2.411,-4.527,-6.134,8.789,9.084,12.807,1.801,-2.065,3.825,2.767,5.829,-1.119,1.343,-0.224,-0.793,-0.254,2.492,-4.588,-2.35,3.591,5.737,-2.33,-0.59,-3.713,2.391,-1.261,-18.056,1.699,-0.57,-4.506,-4.089,-3.571,-0.326,-0.651,7.182,4.913,a
7.68,8.219,4.842,2.268,3.682,6.032,1.058,0.264,3.235,3.052,-0.427,-0.671,1.943,-7.456,-6.276,17.385,3.998,3.052,11.515,-0.01,2.207,-1.434,0.315,-2.441,-1.027,-0.743,3.896,-2.95,-2.899,-4.527,-6.134,8.789,6.154,17.202,1.801,0.865,0.895,1.79,4.852,1.322,1.831,1.241,1.648,1.211,2.492,0.295,0.58,4.567,3.784,-0.376,-0.59,-1.272,1.414,1.18,3.428,1.211,-0.081,-4.018,-4.089,-2.594,-0.814,-0.651,7.67,4.913,a
8.169,11.637,3.377,4.71,5.636,7.497,2.035,3.194,3.235,5.005,4.944,1.282,1.943,1.821,0.071,18.85,-4.303,7.935,-19.735,9.755,0.743,-0.458,-0.173,0,-1.027,0.234,2.92,-0.997,-2.899,-2.574,-4.669,10.742,4.69,13.784,3.754,4.771,0.407,3.255,7.294,3.276,3.784,2.706,5.066,3.652,3.469,4.201,5.463,6.032,0.854,2.553,-0.102,1.658,-1.027,2.645,-12.197,-8.555,0.895,-2.553,-2.136,-0.641,-0.814,-0.651,8.647,6.866,a
8.657,12.614,5.819,9.593,7.589,7.497,3.499,5.636,4.211,6.47,11.292,2.258,1.943,9.633,8.86,21.779,6.439,-4.761,4.191,-11.729,-0.722,0.519,-1.149,1.465,-1.027,2.187,1.455,0.468,-2.411,-0.132,-1.74,12.207,5.666,3.53,6.683,7.701,3.825,8.138,10.712,3.276,5.249,4.171,6.531,5.117,4.445,6.154,8.881,7.009,-1.587,4.506,0.387,2.635,2.391,-2.238,-2.92,-9.532,1.383,-1.577,-0.183,-0.153,-1.302,-0.651,8.647,8.82,a
8.169,10.661,10.701,11.058,9.542,6.521,4.476,7.1,4.7,6.958,13.245,3.235,2.431,11.587,13.743,23.244,1.556,0.122,0.773,-4.893,-1.211,0.519,-1.149,1.465,-1.027,3.164,-0.01,0.468,-2.411,1.333,-0.275,12.695,9.572,-5.747,9.613,7.212,8.708,12.533,11.688,2.787,4.761,5.147,5.554,5.605,5.91,5.178,9.857,7.985,-2.075,4.506,-0.102,2.146,0.437,-0.285,-6.826,-1.719,1.872,-1.088,1.282,-0.153,-1.302,-1.139,8.158,9.796,a
7.68,6.755,14.119,7.151,10.03,6.032,4.964,6.124,4.211,5.493,7.385,2.258,2.431,6.704,11.79,23.244,18.158,-2.808,4.679,-8.799,-0.722,0.031,-1.149,0.488,-1.027,1.699,-0.01,-0.509,-2.411,1.333,-0.763,11.719,14.455,-6.724,10.101,4.283,12.614,12.044,9.247,1.811,2.319,4.659,3.601,4.628,6.399,2.736,8.392,8.474,-1.099,3.042,-1.078,0.682,6.297,-1.75,-31.24,-15.391,1.872,-1.577,0.793,-0.641,-1.302,-0.651,7.67,9.796,a
7.68,3.825,12.655,0.804,9.542,6.032,4.964,4.171,3.723,3.54,-2.869,2.258,2.431,-2.085,5.442,20.803,-0.397,-2.808,3.215,-4.893,0.254,-0.946,-1.149,-1.465,-1.516,-2.207,-0.987,-2.95,-3.387,-1.109,-3.204,10.254,15.92,0.112,8.636,1.841,12.614,6.673,7.294,1.322,0.366,3.682,2.136,4.14,5.91,-0.193,5.463,8.474,0.854,1.088,-1.567,-1.272,0.926,-0.773,8.311,-1.231,1.872,-3.042,-1.16,-2.106,-1.79,-0.651,7.67,8.331,a
7.192,3.337,8.26,-1.149,9.054,7.497,4.964,3.194,3.235,3.54,-10.681,1.77,2.431,-8.921,1.536,17.385,-2.838,-0.854,-0.692,-2.452,0.254,-1.434,-1.638,-2.93,-2.492,-6.602,-2.452,-5.391,-4.364,-4.038,-6.622,8.789,12.502,9.389,6.195,1.353,9.684,0.326,7.782,1.322,0.366,2.218,2.136,4.628,5.91,-2.635,2.533,8.474,2.808,-0.865,-1.567,-2.736,-1.027,-0.773,-10.244,-10.997,1.872,-4.995,-4.578,-3.082,-2.279,-0.651,7.182,7.355,a
6.704,4.801,2.889,1.292,7.589,7.985,4.964,3.194,4.211,3.54,-11.169,1.282,2.92,-11.363,1.536,13.479,9.857,-4.761,-1.668,-9.288,0.254,-1.923,-1.638,-4.395,-2.981,-9.532,-4.405,-6.856,-5.829,-6.968,-9.064,7.812,6.154,13.295,3.265,2.818,5.29,-3.092,9.735,-0.142,1.831,1.241,1.16,5.117,5.422,-4.588,0.092,8.474,1.831,-1.841,-2.055,-4.69,4.344,-2.238,-18.545,-9.532,2.36,-6.46,-7.019,-4.059,-2.767,-0.651,7.182,5.89,a
6.215,6.755,-1.017,5.686,6.612,7.497,4.476,4.171,4.7,3.052,-5.798,1.282,3.408,-8.921,3.977,10.549,-4.791,-1.343,-10.946,-7.334,0.254,-2.411,-2.126,-4.883,-2.981,-9.532,-5.87,-7.345,-6.317,-8.433,-10.04,5.371,2.248,10.854,2.289,4.283,2.36,-4.069,8.27,-1.607,2.808,-0.712,-0.305,5.117,4.934,-6.053,-1.862,7.497,-0.122,-3.306,-3.031,-6.643,-1.516,-3.215,-13.173,-12.461,1.872,-7.436,-8.484,-5.035,-3.255,-1.139,6.205,3.937,a
5.239,7.243,-1.506,6.663,5.147,5.544,3.988,3.682,4.211,1.587,1.526,0.793,3.408,-3.55,4.954,8.596,-4.791,0.122,-1.18,-3.428,-0.234,-2.411,-2.614,-5.859,-2.981,-8.067,-6.358,-6.856,-6.317,-8.921,-10.04,2.93,2.248,4.018,3.265,3.794,1.872,-4.557,3.387,-3.072,2.808,-2.665,-2.747,3.652,4.445,-7.029,-3.326,6.032,-1.099,-3.794,-4.496,-8.596,-1.516,-0.773,-4.873,-7.579,1.872,-7.436,-8.972,-5.035,-3.255,-1.628,5.229,1.007,a
4.262,6.755,-1.506,2.757,4.171,3.103,3.011,1.729,3.235,-0.854,5.92,-0.183,2.92,2.309,1.536,8.108,4.486,-7.202,3.215,-9.776,-0.234,-2.899,-2.614,-5.859,-2.981,-6.602,-6.358,-6.856,-6.317,-8.433,-10.04,0.488,6.154,-0.376,3.754,0.865,3.825,-5.046,-1.007,-3.56,1.343,-4.13,-3.723,1.211,3.957,-6.541,-4.303,4.567,-1.099,-4.283,-5.473,-8.596,3.855,-2.726,-1.943,-16.856,1.383,-7.436,-8.484,-5.035,-3.255,-1.628,3.764,-2.411,a
3.774,5.29,-1.994,-3.103,3.682,1.149,2.035,-1.2,2.258,-3.296,6.409,-0.671,2.431,6.215,-4.812,8.596,3.51,2.075,4.679,-5.87,0.254,-2.899,-3.591,-5.859,-3.469,-6.114,-7.334,-6.856,-6.317,-8.433,-10.04,0.488,9.572,-0.865,3.754,-3.042,4.801,-4.557,-0.031,-2.584,0.854,-5.107,-3.235,0.234,3.469,-5.564,-3.815,3.591,-0.122,-3.794,-5.473,-7.131,2.391,0.692,-8.779,-7.579,1.383,-6.948,-8.484,-5.035,-3.743,-1.628,3.764,-3.387,a
4.751,3.825,-2.482,-5.056,4.171,1.149,2.035,-2.665,2.258,-3.296,5.92,-0.671,2.431,5.239,-10.183,9.572,2.533,0.61,-6.551,-10.752,-0.234,-3.387,-4.079,-5.859,-3.957,-7.579,-8.799,-7.345,-6.805,-8.921,-10.529,2.93,9.572,0.112,2.289,-4.995,1.872,-3.092,5.341,-2.096,1.831,-5.107,-0.305,0.722,3.469,-5.564,-3.326,4.079,0.366,-3.306,-5.473,-5.178,-1.027,-3.215,-14.15,-21.739,1.383,-7.436,-8.972,-5.035,-4.72,-1.628,4.74,-2.411,a
6.704,2.848,-1.017,-2.126,5.147,2.126,3.011,-2.177,4.211,-2.319,5.92,-0.183,3.408,-1.109,-10.183,10.549,1.556,-9.155,-22.176,-8.799,-1.211,-3.387,-6.032,-6.348,-4.445,-9.043,-10.264,-8.321,-7.782,-9.898,-11.017,6.348,8.108,-0.865,-0.153,-4.506,-3.499,-2.604,10.223,-3.072,3.784,-4.618,2.136,2.675,4.445,-6.541,-2.838,5.056,-1.099,-3.794,-6.938,-5.178,0.926,-3.703,-16.103,-13.926,2.36,-7.924,-9.46,-5.524,-5.697,-2.116,6.694,1.007,a
8.169,2.848,3.866,2.757,7.1,3.103,4.964,-0.224,5.676,-1.343,5.92,0.305,3.896,-10.386,-5.788,11.037,2.533,-3.296,1.75,-4.893,-1.699,-3.876,-6.521,-7.324,-4.445,-10.997,-10.752,-8.809,-8.27,-9.898,-11.505,9.277,8.108,-5.259,-0.641,-3.042,-6.917,-5.046,10.223,-3.56,4.761,-4.618,4.089,4.14,5.91,-9.959,-3.326,6.521,-2.563,-4.771,-8.403,-7.619,0.926,0.203,-4.384,4.628,2.848,-8.413,-9.949,-6.012,-6.185,-2.116,8.158,3.937,a
8.657,0.895,9.725,3.733,8.077,3.591,5.452,0.753,6.165,-2.319,2.991,0.305,3.896,-19.663,-0.417,9.572,-4.791,2.563,-1.18,1.455,-1.699,-3.876,-6.032,-8.301,-3.957,-13.438,-9.288,-9.298,-8.27,-10.874,-11.505,9.277,8.108,-12.095,0.336,-2.065,-6.429,-9.44,5.341,-4.049,3.784,-5.107,3.113,4.14,6.399,-13.377,-5.768,7.009,-3.54,-5.747,-8.403,-10.549,-2.981,1.18,-24.404,2.675,3.337,-8.413,-9.949,-6.012,-5.697,-2.116,8.158,4.913,a
6.704,-1.546,12.166,-1.149,7.589,3.103,4.476,0.264,4.7,-4.761,-3.845,0.305,2.92,-24.058,2.024,7.619,-1.373,-0.366,-6.551,0.478,-0.722,-3.387,-4.079,-8.301,-2.492,-14.414,-6.846,-8.809,-6.805,-10.874,-11.505,6.836,6.643,-16.978,0.824,-2.065,-2.035,-11.882,0.946,-3.56,0.854,-6.083,0.183,2.675,5.422,-14.842,-8.698,6.032,-1.587,-5.747,-6.938,-11.525,-2.004,0.203,-2.92,-2.207,2.36,-7.436,-9.949,-5.524,-3.743,-1.628,5.717,1.984,a
2.309,-5.452,8.26,-10.915,4.659,2.126,2.523,-0.712,1.77,-6.226,-12.146,-0.671,1.455,-21.128,0.559,5.666,7.416,-4.272,13.957,-6.358,0.254,-2.899,-1.638,-7.324,-2.004,-13.926,-5.87,-8.321,-5.341,-10.386,-11.017,2.93,0.783,-17.955,-0.153,-2.065,0.407,-8.464,-0.031,-3.072,-2.075,-6.083,-4.211,1.211,3.469,-12.889,-10.651,4.567,1.343,-4.283,-4.008,-9.084,3.367,-0.773,-16.591,-14.414,0.895,-6.948,-9.46,-4.547,-2.279,-0.651,2.299,-2.899,a
-1.109,-7.406,0.448,-17.263,2.218,2.614,0.57,-1.689,-0.671,-5.249,-16.541,-1.16,0.478,-11.851,-2.858,4.69,-0.885,-0.366,-6.063,-2.94,0.743,-1.923,-1.149,-5.371,-1.516,-10.02,-7.334,-6.368,-4.852,-8.921,-10.529,0,-6.053,-14.537,-3.082,-0.6,-1.546,-2.604,1.923,-2.584,-3.54,-5.107,-8.118,0.234,1.516,-7.517,-10.651,2.614,2.808,-2.33,-2.543,-5.666,-1.027,-0.285,9.288,2.187,0.407,-5.971,-8.972,-3.571,-1.79,-0.651,-1.607,-7.294,a
-3.062,-6.429,-6.388,-15.31,-0.224,4.567,0.57,-0.224,-1.648,-2.319,-13.123,-0.671,-0.498,-0.621,-4.812,4.69,2.533,4.517,-4.11,0.966,0.254,-0.946,-2.126,-3.418,-1.516,-4.161,-9.288,-4.415,-4.852,-6.968,-9.552,-1.465,-8.494,-6.236,-5.524,0.376,-6.429,-0.163,2.411,-2.096,-3.052,-3.153,-9.094,1.211,0.539,-1.658,-7.721,1.638,1.343,-0.865,-4.008,-2.736,-1.027,0.203,-21.474,-5.625,0.407,-5.483,-7.507,-2.594,-2.279,-0.651,-3.072,-8.27,a
-1.597,-2.035,-6.877,-5.544,-0.224,5.544,0.57,0.753,-2.625,1.099,-4.822,0.305,-0.498,7.68,-4.323,5.666,2.045,-2.319,-6.551,0.966,-1.211,-0.458,-4.567,-1.953,-1.516,0.722,-9.776,-3.438,-5.829,-5.015,-8.575,-0.488,-3.123,4.018,-4.547,-0.6,-8.382,-2.604,0.946,-2.096,-3.052,-0.712,-6.165,2.187,0.539,1.76,-3.815,1.638,-2.563,-0.865,-6.938,-1.76,1.414,-0.773,-10.732,2.675,0.407,-5.483,-6.042,-1.617,-3.743,-0.651,-1.607,-6.805,a
2.309,5.29,-1.017,7.151,1.241,5.544,1.546,0.753,-2.625,3.052,2.502,0.793,-0.498,8.169,-3.835,7.131,13.763,-3.784,-1.18,-10.752,-2.187,0.031,-6.032,-1.465,-2.004,2.675,-8.799,-2.95,-6.317,-4.038,-7.111,0.977,7.619,12.807,-0.641,-3.53,-2.523,-6.999,0.458,-2.096,-2.563,0.753,0.183,2.187,1.027,2.248,-0.885,3.103,-5.493,-0.865,-8.891,-1.76,3.855,-2.238,-42.959,-9.043,1.383,-4.995,-5.066,-1.617,-4.72,-1.139,2.299,-2.899,a
7.192,11.637,5.819,14.964,3.194,3.103,1.546,-1.2,-2.625,2.075,4.944,0.793,-0.498,2.309,-3.835,10.061,26.459,-5.249,3.703,-4.405,-2.187,-0.458,-5.544,-1.465,-2.004,0.234,-6.358,-3.927,-6.317,-4.038,-6.622,3.906,16.408,15.737,3.754,-7.436,6.266,-6.51,3.876,-2.096,-1.587,0.753,4.089,0.722,1.516,0.295,-1.373,3.591,-5.493,-0.865,-7.914,-1.76,6.297,-2.726,2.452,-16.368,1.383,-4.506,-4.578,-1.617,-4.232,-1.139,7.182,1.007,a
10.122,14.079,7.284,13.987,3.682,-0.315,0.57,-3.642,-1.648,-0.854,2.502,-0.183,-0.01,-5.015,-4.812,12.99,-8.209,1.587,19.816,2.431,-1.211,-0.946,-3.591,-1.953,-2.004,-3.184,-5.381,-4.903,-5.341,-5.503,-6.622,7.812,17.873,11.342,7.172,-8.413,11.637,-0.163,9.247,-2.096,-0.122,-0.712,3.601,-0.743,1.516,-1.658,-3.815,3.591,-2.075,-1.353,-5.473,-2.248,-2.492,0.692,6.846,0.722,0.407,-4.506,-5.066,-2.106,-3.255,-0.651,10.111,4.425,a
11.098,12.126,2.889,6.663,3.682,-1.78,-0.407,-4.13,0.305,-3.296,-0.427,-1.16,1.455,-7.945,-5.3,15.432,-2.35,5.981,1.261,5.361,-0.234,-1.434,-1.638,-2.93,-2.004,-5.625,-6.358,-5.391,-4.364,-6.48,-8.087,11.23,12.014,3.53,7.172,-5.971,8.219,6.673,12.177,-2.096,2.319,-1.2,-1.77,-1.231,2.004,-2.146,-6.256,3.103,1.343,-1.353,-3.031,-2.248,-1.027,2.645,10.752,-6.114,-0.081,-4.506,-6.042,-2.594,-2.767,-0.651,11.088,6.866,a
10.122,7.243,-3.947,-2.126,3.682,-0.315,-0.407,-2.177,2.747,-3.296,0.061,-1.16,2.431,-4.527,-2.858,15.92,-0.397,3.052,1.261,-0.498,0.743,-1.923,-1.149,-3.418,-1.516,-6.114,-8.311,-4.903,-3.876,-6.48,-9.552,13.672,5.178,-3.306,4.73,-1.088,0.407,7.161,9.735,-2.584,4.272,-1.689,-7.141,-0.254,2.492,-1.17,-6.256,2.614,2.808,-2.33,-2.055,-2.736,-2.492,-1.261,6.358,0.722,-0.57,-4.995,-6.531,-3.082,-1.79,-1.139,10.111,7.843,a
8.657,1.872,-7.853,-7.497,3.682,3.103,0.57,0.264,4.211,-2.319,2.991,-1.16,2.431,2.797,2.024,13.967,10.345,-3.784,5.168,-0.498,0.743,-1.434,-0.661,-3.418,-1.027,-4.161,-8.311,-3.438,-3.387,-5.015,-9.064,13.184,2.736,-4.283,2.289,2.818,-3.011,2.279,5.341,-2.584,4.272,-1.2,-8.118,1.211,2.981,0.295,-3.326,4.079,2.319,-2.818,-2.055,-3.225,2.391,-3.215,6.846,-2.207,-0.081,-4.506,-5.554,-2.594,-1.79,-1.139,8.647,7.355,a
7.68,0.407,-4.435,-7.009,5.147,6.521,2.035,1.729,4.211,-0.854,3.967,-0.183,2.431,7.68,7.395,11.037,-12.115,0.61,-1.18,-0.498,0.254,-0.946,-0.173,-2.93,-0.051,-1.719,-4.893,-1.973,-2.411,-2.085,-6.134,11.23,5.666,0.112,0.824,3.306,2.36,-1.139,4.364,-2.584,2.808,-0.712,-1.282,2.187,3.469,1.272,1.556,5.544,0.366,-2.33,-1.567,-3.225,-3.957,3.621,10.752,9.511,0.407,-2.553,-2.625,-1.129,-0.814,-0.651,7.182,6.378,a
7.192,2.36,4.354,-1.638,6.124,7.985,3.011,1.729,2.747,0.122,0.549,0.305,1.455,7.68,10.325,10.549,-0.397,0.122,-2.645,-2.452,0.254,0.031,0.804,-0.977,1.414,-0.254,-0.01,-0.02,0.519,1.333,-1.251,9.766,10.061,4.995,0.824,0.865,11.149,1.302,7.782,-1.119,0.854,0.264,7.996,2.675,3.469,1.272,4.486,7.009,-0.122,-0.376,-0.102,-1.272,-0.539,0.692,-28.798,-0.254,1.383,0.376,1.282,0.824,0.651,-0.163,6.694,6.378,a
6.704,6.755,12.655,4.71,6.612,7.497,3.011,0.753,0.793,1.099,-6.287,0.793,0.966,3.774,8.86,12.99,-2.838,-0.854,-12.899,-5.87,0.254,1.007,2.268,0.977,2.879,0.722,3.896,2.421,3.448,3.774,3.632,9.766,11.525,7.436,1.312,-0.6,14.567,6.185,10.712,0.834,-1.099,1.729,12.878,2.675,3.469,1.76,4.486,7.497,0.854,1.577,2.34,2.635,-3.957,-1.261,7.823,-2.207,1.383,3.306,4.7,2.289,2.116,0.326,6.694,7.355,a
6.704,9.684,15.096,9.104,5.636,5.056,2.035,0.753,0.305,2.563,-11.658,1.282,0.478,-1.597,4.466,16.897,1.556,-3.296,1.261,-6.358,0.254,1.984,2.268,2.441,3.367,2.187,3.896,3.398,5.402,5.239,7.05,11.719,9.572,4.506,0.336,0.376,7.243,7.65,7.782,1.322,-1.099,2.218,10.437,2.187,2.492,2.248,1.556,6.032,1.343,3.53,2.34,5.076,-0.539,-1.75,-18.545,-7.579,0.895,4.771,6.653,3.265,2.604,1.302,6.694,8.331,a
5.727,8.219,11.678,9.104,3.194,2.614,0.57,2.218,0.305,4.028,-10.681,1.282,0.478,-5.503,-0.417,18.85,2.533,-4.761,-0.203,-7.823,-0.234,1.984,0.804,2.441,2.391,2.675,0.478,2.909,4.425,4.262,6.073,13.184,5.666,-3.306,-1.129,3.794,-4.964,1.79,1.434,0.834,-0.61,2.706,1.648,1.699,1.516,1.76,-0.397,3.591,0.366,3.042,-0.59,4.588,0.437,-3.215,-10.244,-2.696,0.407,4.283,5.188,2.777,2.116,0.814,5.717,7.843,a
4.751,2.848,4.842,4.222,0.753,0.661,-0.895,4.659,0.305,4.028,-4.822,1.282,-0.01,-7.456,-3.835,16.408,1.068,-0.854,-8.993,-1.475,-0.234,1.007,-1.149,0.488,0.926,0.722,-4.405,-0.02,1.007,1.821,1.19,12.207,3.225,-12.095,-3.082,6.724,-12.288,-5.534,-1.984,-0.631,-0.122,1.729,-6.165,1.699,0.051,0.295,-1.373,0.661,-1.587,0.112,-4.496,0.682,-1.027,0.203,9.288,-2.207,-0.081,0.865,1.77,0.824,-0.326,0.326,4.74,4.425,a
3.774,-2.523,-0.529,-2.614,-0.712,0.661,-1.383,5.147,-0.671,2.563,2.014,0.793,-0.498,-9.898,-5.788,11.525,0.58,-1.343,10.05,-4.893,-1.211,-0.458,-3.591,-2.93,-1.027,-2.207,-7.823,-3.438,-2.899,-1.597,-5.157,8.789,3.713,-18.443,-2.594,6.724,-10.335,-9.928,1.923,-1.607,-1.099,-0.224,-8.606,1.211,-0.437,-3.123,-0.397,-0.315,-3.54,-2.33,-7.914,-4.69,-1.027,-0.285,0.987,4.14,-0.081,-3.042,-3.113,-1.129,-2.279,-0.651,3.764,0.031,a
4.751,-4.476,-1.994,-7.985,0.264,1.149,-0.895,3.682,-1.16,0.122,5.92,0.305,-0.987,-12.339,-6.276,7.619,-0.397,-1.831,-1.668,-1.475,-1.211,-1.434,-4.079,-5.371,-2.492,-5.625,-8.799,-5.88,-6.317,-5.503,-10.04,4.395,6.154,-16.978,-0.153,2.818,-3.011,-9.928,8.759,-2.096,-2.075,-2.177,-5.676,0.234,-0.926,-6.541,-0.397,0.173,-3.54,-4.283,-7.914,-8.108,-0.051,0.203,2.94,-1.231,-0.081,-5.971,-7.019,-3.082,-3.743,-0.651,4.252,-2.899,a
6.215,-0.57,-0.529,-7.985,1.241,2.126,-0.407,0.264,-1.16,-2.808,5.92,-0.671,-1.475,-11.851,-6.276,7.619,6.927,0.61,-0.692,0.966,-0.722,-1.923,-3.591,-5.859,-2.004,-7.579,-7.334,-6.368,-7.294,-7.945,-11.505,3.418,7.131,-6.236,3.265,-2.553,2.848,-6.51,11.2,-3.56,-2.563,-4.618,-1.282,-0.743,-0.437,-8.982,-2.838,1.149,-1.587,-4.283,-5.473,-7.619,0.437,-1.261,2.94,-4.161,-0.081,-6.46,-8.484,-3.082,-3.743,-0.651,5.229,-2.411,a
6.215,5.778,1.424,-3.591,1.729,1.149,-0.895,-3.642,-1.16,-4.272,2.991,-1.648,-1.475,-7.945,-7.253,9.572,4.486,4.517,-8.504,1.943,-0.234,-0.946,-2.126,-4.883,-0.539,-6.114,-5.381,-4.903,-5.341,-7.456,-9.552,5.371,5.178,8.901,4.242,-7.924,4.313,-3.581,6.805,-4.537,-1.587,-5.595,0.183,-2.207,-0.437,-8.982,-7.233,2.126,0.854,-2.818,-3.031,-4.69,-0.539,-0.285,0.498,-4.161,-1.058,-4.995,-7.996,-2.594,-2.767,-0.163,5.717,1.007,a
4.751,10.173,0.936,1.78,0.264,-0.315,-1.872,-6.083,-1.16,-4.272,-0.427,-2.136,-0.987,-2.085,-7.253,11.525,-3.815,1.587,1.75,-0.498,0.743,0.031,-0.661,-2.93,0.926,-3.184,-3.916,-2.462,-2.411,-5.992,-6.622,7.812,0.783,20.62,2.289,-10.366,2.36,-1.139,0.458,-5.025,-0.61,-4.618,-1.77,-3.672,-0.926,-7.029,-12.115,1.149,1.831,-1.841,-2.055,-1.272,-2.004,-0.285,-28.798,0.234,-1.546,-2.553,-5.554,-0.641,-0.814,0.326,4.74,3.937,a
1.333,9.684,-2.97,3.733,-1.689,-1.78,-3.337,-6.083,-1.648,-3.296,-2.869,-2.625,-0.498,1.821,-4.323,11.525,-0.397,-6.226,1.75,-2.452,1.231,0.519,-0.173,-0.977,1.902,-0.254,-3.428,-0.997,0.519,-3.55,-3.693,9.277,-3.611,21.108,-1.129,-8.413,1.872,1.302,-1.495,-3.072,-0.61,-1.689,-3.723,-3.672,-1.902,-4.1,-13.58,0.173,1.831,-0.376,-3.031,0.193,-0.539,-1.75,-3.408,-6.602,-2.035,-0.6,-2.625,0.336,0.651,0.814,1.811,3.937,a
-1.109,5.778,-5.9,2.268,-2.177,-0.804,-2.848,-4.13,-2.625,-1.343,-4.333,-1.648,-0.498,2.309,0.071,9.572,1.068,-3.296,-1.18,-6.846,1.231,0.519,0.315,-0.488,1.902,0.722,-3.428,-0.509,1.495,-1.597,-2.716,7.812,-4.1,11.342,-4.059,-4.506,1.383,3.255,1.923,-0.142,-0.61,0.753,-3.723,-2.207,-1.902,-1.17,-9.674,0.173,0.366,0.112,-3.031,0.682,-0.051,-1.75,-4.384,-7.579,-1.546,0.865,-1.648,1.312,1.139,0.814,-0.631,2.472,a
0.356,2.36,-6.388,0.315,-0.224,2.126,-0.895,-0.712,-3.113,0.122,-4.333,-0.183,-0.498,-0.132,4.466,10.549,4.486,-7.69,-2.645,-11.729,0.254,0.031,0.315,-0.488,0.926,0.234,-2.94,-0.997,1.007,-1.597,-3.204,6.348,1.272,-0.376,-3.571,-0.6,-1.058,3.255,6.317,1.811,-1.587,1.729,-2.258,0.722,-0.926,1.272,-2.838,1.149,-0.61,0.6,-2.055,0.193,1.902,-2.726,-34.658,-9.043,-0.081,0.376,-1.16,0.824,1.139,0.814,0.346,1.495,a
-2.909,1.973,5.859,-0.488,-0.417,0.885,-0.641,-3.581,2.004,-1.536,-1.994,-1.933,-0.153,7.467,-7.935,-4.862,1.119,-3.591,6.582,-3.876,1.241,2.045,0.682,2.452,1.933,0.732,-0.661,1.444,0.163,-0.458,-2.075,-5.676,-3.489,-4.822,0.498,-2.116,1.587,-1.16,-6.51,-2.604,0.203,-0.173,7.416,-3.357,0.458,1.475,-7.456,-0.59,1.282,2.665,1.984,1.251,1.292,-1.862,-6.887,1.383,-1.617,0.61,-1.495,2.309,0.885,0.997,-2.37,-3.967,a
-2.421,0.509,3.418,7.812,-0.905,0.885,-1.617,-4.069,2.492,-0.559,-5.9,-2.909,-0.153,3.072,-6.47,-5.839,2.096,-5.056,1.211,-3.387,1.729,1.556,0.682,2.94,2.421,-0.244,-0.173,1.933,0.163,-0.946,-0.61,-5.188,-1.536,-8.24,1.963,-3.581,3.052,1.77,-0.651,-2.604,0.692,0.315,7.904,-4.333,-0.031,1.963,-6.968,-1.567,1.282,2.665,1.007,1.74,2.757,-0.397,23.387,7.243,-2.106,1.099,-0.519,2.797,1.373,1.485,-1.882,-3.967,a
-1.444,-3.886,-0.977,7.324,-0.905,0.397,-1.617,-3.092,2.004,-0.071,-6.388,-3.398,-0.153,-2.299,-1.099,-4.862,2.584,-1.149,-0.254,-3.387,1.729,1.068,0.682,2.452,2.909,-0.244,1.292,1.933,0.163,-0.458,0.366,-5.188,2.37,-6.775,3.916,-5.046,3.54,1.77,2.279,-3.092,0.692,-0.173,4.974,-3.845,-0.031,1.475,-2.085,-2.055,0.793,0.712,-0.458,1.74,3.245,0.58,5.32,2.848,-2.594,1.587,0.458,2.797,1.862,1.485,-1.394,-2.991,a
-0.956,-7.304,-3.906,0.488,0.071,-0.58,-1.617,-2.116,0.539,-1.048,-4.435,-3.398,-0.153,-5.229,5.249,-1.933,-3.276,-1.638,5.605,-1.923,2.218,0.58,1.17,1.963,2.909,-0.732,1.292,1.444,0.651,0.031,-0.122,-5.188,5.3,-2.38,4.893,-6.022,1.587,-0.671,0.326,-4.069,0.692,-1.149,2.045,-1.892,-0.519,0.01,2.797,-1.567,0.793,-0.264,-0.458,0.763,-2.126,-1.373,15.574,5.778,-2.594,1.587,-0.031,2.309,1.862,1.485,-1.394,-3.479,a
-0.956,-8.28,-4.395,-6.836,0.071,-2.045,-1.129,-2.116,0.051,-3.001,-1.994,-2.909,-0.153,-5.229,9.155,0.997,21.139,-4.567,3.652,-0.946,2.706,0.092,2.146,0.987,2.421,-2.197,0.315,0.956,0.651,0.031,-1.099,-5.188,4.323,0.549,2.94,-6.51,-1.831,-5.066,-2.604,-5.046,0.692,-2.614,0.092,-0.916,-0.031,-1.455,5.239,-1.078,1.282,-1.241,0.519,-0.214,5.686,-2.838,9.226,-3.988,-2.106,1.099,-0.519,1.821,2.35,1.485,-1.394,-3.479,a
-1.933,-6.327,-2.93,-8.789,-0.417,-3.021,-0.641,-3.092,0.051,-4.466,-0.529,-3.398,-0.153,-5.229,7.69,2.462,-20.365,3.245,-0.743,3.448,2.706,0.092,2.635,0.498,2.909,-4.15,-0.661,1.444,1.139,0.031,-1.099,-5.188,0.417,0.549,0.498,-6.51,-3.296,-8.484,-2.116,-5.046,0.203,-3.591,-0.397,-1.404,-0.031,-2.92,4.751,-0.102,2.258,-1.241,1.984,-0.702,-2.126,2.045,10.203,3.337,-2.106,1.099,-0.519,1.821,2.838,1.485,-1.882,-3.479,a
-1.933,-1.933,0,-3.906,-0.417,-2.533,-0.641,-3.581,0.539,-4.954,-1.017,-3.398,-0.153,-6.694,3.296,1.973,6.002,0.315,9.511,-1.434,3.194,0.092,2.635,0.498,3.398,-4.15,-0.173,2.909,3.092,1.007,1.343,-4.211,-4.466,-2.38,-1.455,-4.557,1.587,-8.484,1.302,-3.581,1.18,-4.567,0.092,-2.38,0.458,-4.384,4.262,-0.102,3.235,-0.753,1.984,-0.702,1.78,-0.885,-8.352,1.872,-1.617,2.563,1.434,2.309,2.838,1.485,-1.882,-2.502,a
-0.956,2.462,2.93,2.93,-0.417,-1.556,-0.641,-2.604,1.027,-3.489,-2.482,-3.398,0.336,-10.6,-1.587,1.485,4.049,1.78,3.652,-2.411,3.194,1.068,2.146,0.987,4.374,-3.174,1.78,4.862,4.069,3.448,5.737,-2.747,-6.907,-3.845,-0.966,-1.628,8.911,-6.042,3.743,-2.116,0.203,-4.567,0.092,-2.38,-0.031,-4.873,5.727,-0.102,3.235,-0.264,1.495,-0.214,1.292,-0.885,2.879,-1.058,-2.106,4.517,4.852,3.286,3.815,1.973,-0.905,-0.549,a
0.02,3.438,4.883,3.906,0.559,-0.58,-0.641,-0.651,2.004,-2.024,-1.994,-2.909,-0.153,-13.529,-2.075,1.973,1.607,-2.614,1.211,9.796,3.194,1.068,2.146,1.963,4.862,-0.244,4.71,5.839,6.022,6.866,10.132,-0.305,-6.419,-1.892,0.498,1.302,11.841,-2.625,1.79,-1.628,0.692,-3.103,-0.397,-1.892,-0.031,-4.384,9.145,-0.102,2.747,0.224,0.031,0.763,3.733,0.092,9.715,-1.058,-2.594,6.47,8.27,4.262,4.303,1.973,0.071,0.427,a
1.973,1.485,5.371,-0.977,1.536,-0.092,-0.641,1.302,2.492,-0.559,-0.041,-2.421,-0.153,-13.041,1.343,4.415,1.607,-3.591,13.418,-0.458,2.706,1.068,2.635,2.452,4.374,1.709,6.175,5.351,6.022,7.843,11.108,1.16,-3.489,1.038,2.452,2.767,5.493,0.305,-3.581,-2.116,1.668,-1.149,-0.885,0.061,0.458,-2.92,10.122,0.387,1.77,0.712,0.519,1.251,1.292,-1.373,1.902,10.173,-2.594,6.958,8.759,3.774,4.303,1.973,1.536,0.427,a
2.95,-1.933,3.906,-8.301,2.513,-0.092,0.336,1.302,2.981,-0.559,4.354,-1.933,0.336,-7.182,6.226,6.368,6.49,-2.126,12.441,0.519,2.218,1.068,3.123,2.452,3.398,2.197,7.151,2.909,5.534,6.378,8.179,2.136,0.417,2.991,2.94,2.279,-4.761,0.793,-5.046,-2.116,2.645,0.315,0.092,1.038,0.946,0.01,7.68,0.875,1.77,1.2,2.96,2.228,3.245,-2.35,12.156,0.407,-2.106,5.493,6.805,2.797,4.303,1.485,2.024,-0.549,a
3.438,-3.398,2.93,-11.23,3.001,0.397,0.824,-0.163,3.469,-1.048,9.237,-1.444,0.824,1.119,9.644,6.368,9.42,1.292,14.394,1.007,2.706,1.556,4.1,2.452,1.933,1.709,7.151,0.956,4.069,3.448,3.296,2.136,5.3,0.549,2.94,0.814,-10.132,0.305,-0.651,-1.628,3.621,1.292,2.045,0.549,1.434,2.94,2.309,1.363,2.258,2.177,5.89,2.228,4.222,-1.373,10.691,6.755,-2.106,3.052,2.899,1.821,3.815,1.485,3.001,-1.526,a
3.927,-2.421,3.418,-5.859,2.513,2.35,0.824,-2.116,3.469,-1.536,13.631,-1.933,1.312,8.931,9.155,4.415,9.42,-2.126,8.046,3.937,2.706,1.068,5.564,2.452,1.933,2.686,7.64,0.468,3.092,1.007,0.366,1.648,9.206,-4.333,3.916,-0.651,-7.202,1.282,5.697,-1.139,3.621,1.292,4.974,-0.916,1.923,4.893,-1.109,1.851,3.235,2.665,8.82,2.228,3.245,-0.885,-12.746,9.684,-2.106,1.587,0.946,0.844,3.815,1.485,3.489,-1.038,a
4.415,0.997,5.371,3.906,2.513,4.303,-0.153,-3.581,2.492,-0.559,14.119,-2.421,0.824,13.326,6.714,1.973,-2.787,1.78,3.164,5.89,3.194,1.068,6.541,1.963,2.909,4.639,8.616,1.933,3.581,1.495,1.343,2.625,11.648,-7.263,5.87,-2.116,1.099,4.7,7.65,-1.628,3.133,0.804,7.416,-2.38,0.946,5.381,0.356,1.851,4.7,2.665,9.796,1.74,-0.661,-0.885,20.945,13.102,-2.594,2.563,1.923,1.333,4.791,1.973,4.466,1.404,a
3.927,2.95,6.836,11.719,1.536,4.791,-1.129,-3.581,1.027,1.394,10.213,-2.909,-0.153,13.814,3.296,1.485,1.607,-0.661,5.117,4.913,4.171,1.068,8.006,2.452,4.862,7.568,10.081,4.374,6.022,4.425,5.737,3.601,9.694,-4.822,6.358,-3.581,8.423,7.141,4.232,-2.116,2.645,0.804,10.345,-3.357,-0.031,5.381,6.215,1.363,6.165,1.689,9.308,2.228,0.804,-0.397,17.527,3.337,-3.082,5.493,5.829,2.797,6.744,2.462,3.977,3.845,a
2.95,3.438,6.348,11.23,0.559,2.838,-2.594,-2.604,0.051,3.347,2.889,-3.886,-1.129,11.861,1.831,4.415,3.072,-0.173,1.699,6.866,5.147,1.556,9.471,2.94,6.816,9.521,11.058,6.816,9.44,8.82,10.132,3.601,5.3,1.526,4.405,-3.581,11.841,7.141,-0.651,-2.604,2.157,1.292,12.787,-2.869,-1.495,5.381,12.075,0.387,7.141,1.2,9.308,3.204,0.315,-0.885,3.367,3.825,-3.571,8.423,10.223,4.262,8.698,2.95,2.513,5.31,a
1.485,1.485,4.395,5.371,-0.417,-0.58,-3.082,-1.139,0.051,3.347,-4.435,-3.398,-1.129,8.443,1.831,10.274,1.119,2.268,3.164,2.472,6.124,2.045,10.447,4.893,7.792,9.521,11.546,8.769,11.393,11.749,12.573,3.601,0.905,6.897,0.987,-2.604,14.282,4.211,-1.139,-2.116,1.668,2.268,14.252,-2.38,-2.472,5.87,14.516,-1.078,8.606,1.689,10.284,5.157,-1.149,-0.885,6.297,-7.406,-4.059,9.888,12.665,6.215,10.162,3.438,1.048,5.798,a
0.509,0.02,1.953,-0.977,-0.417,-3.021,-3.082,-0.163,1.027,1.882,-8.83,-3.398,-1.129,5.025,3.784,15.157,5.514,4.222,2.675,5.402,6.612,2.533,9.959,6.358,7.792,8.545,12.034,9.257,11.393,12.238,12.573,3.601,-0.559,8.362,-0.478,-0.163,14.771,2.258,3.255,-1.628,1.18,2.268,13.275,-1.892,-2.472,6.358,13.051,-1.567,8.118,2.665,10.284,7.111,0.315,0.092,2.391,1.383,-4.059,9.888,12.177,6.704,9.674,3.438,0.071,6.287,a
1.485,0.997,1.953,-3.418,1.048,-3.998,-2.594,-0.163,2.004,0.417,-6.388,-2.909,-1.129,3.072,7.202,17.598,-0.346,4.71,-9.043,6.378,5.636,3.021,8.494,7.823,6.816,7.568,13.011,8.769,9.928,10.773,10.132,4.578,2.37,5.432,2.452,2.767,12.817,2.258,6.185,-1.628,0.203,1.78,9.857,-2.38,-1.495,6.846,9.633,-1.078,6.653,4.13,9.796,8.087,0.804,2.045,-6.887,9.684,-4.059,8.911,10.223,7.68,7.721,3.438,1.048,7.751,a
2.95,2.462,3.906,-0.488,2.024,-2.045,-2.106,-1.139,1.027,-0.071,-1.017,-2.909,-1.617,3.56,11.108,17.598,6.978,3.733,-0.254,1.007,4.171,3.51,6.541,8.799,5.839,7.08,13.011,8.28,7.487,8.331,7.202,6.531,7.253,2.502,6.846,4.232,7.446,3.235,3.255,-2.604,-0.773,1.78,4.974,-3.357,-1.007,6.846,9.145,-0.59,3.723,5.107,7.355,9.064,3.733,1.068,3.855,5.778,-3.571,7.446,7.782,7.192,6.256,2.95,2.513,10.193,a
3.927,2.95,5.859,2.93,1.536,-0.58,-3.082,-2.604,-0.926,0.417,3.377,-2.909,-2.594,5.025,13.55,15.645,7.467,-2.126,-3.184,-3.387,2.706,3.021,4.1,8.311,5.351,6.592,10.569,7.304,5.534,6.378,5.249,8.484,8.718,1.526,7.823,2.279,1.587,2.747,-4.069,-2.604,-1.261,2.268,1.556,-4.333,-1.984,6.846,9.633,-0.59,1.282,5.107,4.913,8.575,2.268,-2.838,-5.91,2.848,-4.059,6.47,5.829,6.215,4.303,2.462,3.001,11.169,a
2.462,0.997,6.348,4.395,-0.417,-0.58,-4.059,-3.092,-1.902,0.905,3.377,-2.909,-2.594,5.514,11.597,13.692,10.885,-3.103,9.023,-2.411,2.218,3.021,3.123,6.846,3.886,4.639,6.175,5.351,4.069,5.402,3.784,8.484,5.788,2.991,4.405,-0.651,-3.296,-0.183,-7.975,-1.628,-1.261,3.245,-0.885,-4.333,-2.96,6.358,10.61,-1.567,1.282,4.618,2.96,7.111,2.268,-0.885,8.738,6.266,-4.059,5.493,4.364,5.239,3.326,1.973,2.024,8.24,a
-0.468,-3.398,4.883,2.93,-3.347,-2.533,-5.035,-3.092,-1.902,0.905,-0.041,-2.909,-2.594,2.096,6.226,13.204,2.096,-2.126,12.441,-1.434,2.706,2.045,2.635,4.405,2.909,1.709,1.78,3.398,2.604,3.937,2.808,5.554,-0.071,2.502,-1.943,-4.069,-6.226,-1.648,-5.534,-0.651,-0.285,3.733,-2.35,-4.333,-3.937,5.381,7.68,-3.52,3.235,3.642,2.472,4.669,2.268,-0.885,-0.051,-11.8,-4.059,3.54,2.899,3.286,2.838,1.485,-0.905,3.357,a
-2.909,-6.816,3.418,0.488,-4.323,-3.021,-4.059,-2.116,-0.926,0.417,-1.994,-2.421,-1.129,-5.229,0.854,13.204,-3.764,1.292,-3.672,0.519,3.194,1.068,3.123,1.963,1.933,-0.244,0.315,1.933,1.139,2.472,1.831,2.625,-3.977,-0.916,-5.361,-5.046,-6.714,-0.183,1.79,-0.163,1.18,2.268,-3.815,-3.357,-3.448,3.428,3.774,-4.008,5.676,2.177,3.448,1.74,-1.149,0.58,-2.492,2.848,-3.571,1.587,1.434,1.821,2.35,0.997,-3.347,-1.526,a
-2.909,-6.327,3.418,-0.488,-2.37,-2.045,-3.082,-1.628,1.516,-0.071,0.448,-1.933,0.336,-12.553,-0.122,12.716,-5.717,2.268,0.722,2.96,3.682,0.092,3.611,0.498,1.444,-1.709,1.292,1.444,0.651,1.495,1.343,0.671,-2.024,-5.31,-2.92,-4.557,-3.296,2.747,5.697,-1.139,2.157,-0.173,-5.28,-2.38,-1.984,0.498,0.844,-2.543,6.653,0.224,3.448,-1.678,-2.614,0.092,-8.84,-3.499,-2.594,1.099,0.946,0.844,2.35,0.509,-3.347,-2.991,a
0.02,-1.933,4.883,0,1.536,0.397,-1.129,-1.139,2.492,-0.559,6.795,-1.933,1.312,-13.529,3.296,11.251,2.584,0.315,11.464,2.472,3.194,0.092,3.123,0.01,1.933,-1.709,2.268,1.933,1.628,1.007,1.343,1.16,2.37,-6.287,4.405,-2.116,4.517,3.723,4.232,-2.604,3.133,-2.126,-3.815,-1.892,-0.031,-2.431,1.333,-0.102,4.7,-0.753,2.96,-3.143,2.268,0.092,-10.793,-12.777,-2.106,1.587,0.946,0.844,2.35,0.509,-0.417,-0.549,a
3.438,3.438,5.859,1.465,3.977,2.35,-0.641,-1.139,2.492,0.905,12.166,-1.933,1.312,-6.205,8.179,8.809,1.119,-0.173,-4.649,-2.899,2.706,0.092,3.123,0.498,3.398,-1.221,1.78,2.421,3.092,1.007,1.831,2.625,4.812,-0.916,9.776,0.814,13.306,1.77,0.814,-2.604,3.621,-2.126,1.068,-1.892,0.946,-2.92,4.262,1.851,1.77,-1.241,1.984,-2.655,0.804,-0.397,-6.887,9.684,-1.617,2.563,1.434,1.821,2.838,0.509,3.001,4.333,a
4.415,5.88,4.883,1.953,3.489,1.862,-0.641,-0.651,1.027,2.858,11.19,-1.444,0.824,7.467,9.644,6.368,8.443,1.78,20.253,-3.876,1.729,0.58,2.635,0.987,3.886,-1.221,-0.661,2.421,4.557,1.007,1.831,3.113,3.835,6.897,8.799,3.255,15.747,-0.183,-0.163,-1.139,2.157,-0.173,7.416,-1.892,0.946,-1.455,5.727,1.851,-0.671,-0.264,1.495,-0.702,3.245,-0.397,22.898,1.383,-1.129,3.052,1.434,2.309,3.326,1.485,4.466,7.751,a
2.95,4.415,3.418,2.441,1.048,0.397,-1.129,-0.163,0.051,4.323,2.401,-1.444,-0.641,19.185,5.737,5.391,2.096,2.268,-5.137,1.495,0.753,1.068,2.635,1.963,2.909,-1.709,-3.591,0.956,4.069,0.519,0.854,2.625,1.394,11.78,3.428,6.185,7.935,1.282,1.79,0.326,-0.285,1.78,12.299,-1.404,-0.031,1.963,3.774,0.875,-1.16,1.2,1.007,1.74,1.78,0.58,13.133,3.337,-1.129,2.563,0.458,2.309,3.326,1.485,3.001,7.751,a
